Data from FLMS187131_15-11-27-491.txt Node
Date: Mon Dec 23 15:11:27 MSK 2024
User: FemtoLab1
Spectrometer: FLMS18713
Trigger mode: 0
Integration Time (sec): 3,500000E-2
Scans to average: 1
Electric dark correction enabled: true
Nonlinearity correction enabled: false
Boxcar width: 0
XAxis mode: Wavelengths
Number of Pixels in Spectrum: 2048
>>>>>Begin Spectral Data<<<<<
190,252	-31,97
190,715	-31,97
191,177	-31,97
191,64	-125,86
192,102	-76,44
192,565	-143,16
193,027	-123,39
193,49	-44,32
193,952	-76,44
194,415	-41,85
194,877	-86,33
195,339	-27,03
195,802	-41,85
196,264	-22,08
196,726	0,15
197,188	42,16
197,65	106,4
198,112	59,46
198,574	94,05
199,036	98,99
199,498	205,24
199,96	98,99
200,421	153,35
200,883	259,6
201,345	242,3
201,807	252,18
202,268	341,14
202,73	279,36
203,191	373,26
203,653	264,54
204,114	294,19
204,576	338,66
205,037	422,67
205,498	385,61
205,96	375,73
206,421	420,2
206,882	417,73
207,343	420,2
207,804	355,96
208,265	444,91
208,726	412,79
209,187	422,67
209,648	452,32
210,109	380,67
210,57	400,44
211,031	420,2
211,492	489,39
211,952	454,8
212,413	363,37
212,874	442,44
213,334	407,85
213,795	388,08
214,255	439,97
214,716	499,27
215,176	395,49
215,636	442,44
216,097	427,62
216,557	417,73
217,017	378,2
217,477	449,85
217,938	420,2
218,398	427,62
218,858	328,78
219,318	323,84
219,778	452,32
220,238	358,43
220,698	388,08
221,157	368,31
221,617	395,49
222,077	420,2
222,537	417,73
222,996	318,9
223,456	427,62
223,915	291,72
224,375	279,36
224,834	383,14
225,294	348,55
225,753	318,9
226,213	333,72
226,672	388,08
227,131	311,48
227,59	343,61
228,05	363,37
228,509	326,31
228,968	393,02
229,427	338,66
229,886	351,02
230,345	355,96
230,804	370,79
231,263	370,79
231,721	309,01
232,18	393,02
232,639	346,08
233,098	397,97
233,556	422,67
234,015	363,37
234,473	365,84
234,932	390,55
235,39	323,84
235,849	425,14
236,307	346,08
236,765	355,96
237,224	383,14
237,682	405,38
238,14	410,32
238,598	420,2
239,056	375,73
239,514	420,2
239,972	439,97
240,43	412,79
240,888	383,14
241,346	395,49
241,804	388,08
242,262	407,85
242,72	360,9
243,177	464,68
243,635	385,61
244,093	442,44
244,55	427,62
245,008	368,31
245,465	454,8
245,923	415,26
246,38	380,67
246,837	373,26
247,295	432,56
247,752	365,84
248,209	390,55
248,666	358,43
249,123	365,84
249,58	385,61
250,037	425,14
250,494	373,26
250,951	368,31
251,408	400,44
251,865	400,44
252,322	380,67
252,779	351,02
253,235	417,73
253,692	378,2
254,149	368,31
254,605	427,62
255,062	378,2
255,518	422,67
255,975	447,38
256,431	412,79
256,887	343,61
257,344	343,61
257,8	430,09
258,256	328,78
258,712	420,2
259,168	444,91
259,625	351,02
260,081	368,31
260,537	393,02
260,992	427,62
261,448	439,97
261,904	417,73
262,36	383,14
262,816	365,84
263,272	402,91
263,727	373,26
264,183	363,37
264,638	425,14
265,094	346,08
265,549	400,44
266,005	435,03
266,46	439,97
266,916	365,84
267,371	489,39
267,826	447,38
268,281	380,67
268,737	388,08
269,192	341,14
269,647	481,97
270,102	373,26
270,557	412,79
271,012	432,56
271,467	393,02
271,921	420,2
272,376	449,85
272,831	439,97
273,286	430,09
273,74	415,26
274,195	383,14
274,649	432,56
275,104	383,14
275,558	358,43
276,013	385,61
276,467	370,79
276,922	420,2
277,376	400,44
277,83	442,44
278,284	420,2
278,739	343,61
279,193	412,79
279,647	407,85
280,101	390,55
280,555	407,85
281,009	415,26
281,462	415,26
281,916	447,38
282,37	358,43
282,824	417,73
283,278	444,91
283,731	420,2
284,185	417,73
284,638	388,08
285,092	422,67
285,545	449,85
285,999	373,26
286,452	407,85
286,905	442,44
287,359	360,9
287,812	427,62
288,265	395,49
288,718	388,08
289,171	326,31
289,624	373,26
290,077	417,73
290,53	430,09
290,983	457,27
291,436	439,97
291,889	375,73
292,342	417,73
292,794	388,08
293,247	388,08
293,7	422,67
294,152	444,91
294,605	447,38
295,057	397,97
295,51	442,44
295,962	499,27
296,414	489,39
296,867	457,27
297,319	516,57
297,771	474,56
298,223	432,56
298,675	383,14
299,128	368,31
299,58	412,79
300,032	484,45
300,483	430,09
300,935	351,02
301,387	383,14
301,839	449,85
302,291	405,38
302,742	442,44
303,194	417,73
303,646	489,39
304,097	397,97
304,549	474,56
305	420,2
305,451	432,56
305,903	422,67
306,354	422,67
306,805	439,97
307,257	432,56
307,708	390,55
308,159	360,9
308,61	410,32
309,061	427,62
309,512	435,03
309,963	462,21
310,414	432,56
310,865	447,38
311,315	432,56
311,766	474,56
312,217	430,09
312,668	375,73
313,118	383,14
313,569	400,44
314,019	469,62
314,47	417,73
314,92	405,38
315,37	380,67
315,821	412,79
316,271	397,97
316,721	328,78
317,171	435,03
317,622	407,85
318,072	444,91
318,522	309,01
318,972	472,09
319,422	479,5
319,872	457,27
320,321	489,39
320,771	397,97
321,221	415,26
321,671	353,49
322,12	393,02
322,57	393,02
323,019	422,67
323,469	425,14
323,918	400,44
324,368	430,09
324,817	420,2
325,267	435,03
325,716	430,09
326,165	427,62
326,614	373,26
327,063	402,91
327,512	405,38
327,961	437,5
328,41	477,03
328,859	430,09
329,308	390,55
329,757	484,45
330,206	388,08
330,655	452,32
331,103	388,08
331,552	496,8
332,001	410,32
332,449	383,14
332,898	405,38
333,346	462,21
333,794	447,38
334,243	477,03
334,691	430,09
335,139	439,97
335,588	425,14
336,036	402,91
336,484	481,97
336,932	486,92
337,38	486,92
337,828	400,44
338,276	410,32
338,724	489,39
339,172	432,56
339,619	486,92
340,067	452,32
340,515	427,62
340,962	427,62
341,41	464,68
341,858	388,08
342,305	410,32
342,753	328,78
343,2	397,97
343,647	439,97
344,095	397,97
344,542	447,38
344,989	432,56
345,436	427,62
345,883	467,15
346,33	467,15
346,777	467,15
347,224	469,62
347,671	427,62
348,118	442,44
348,565	412,79
349,012	358,43
349,458	402,91
349,905	407,85
350,352	439,97
350,798	435,03
351,245	393,02
351,691	395,49
352,138	373,26
352,584	427,62
353,03	385,61
353,477	405,38
353,923	444,91
354,369	474,56
354,815	407,85
355,261	375,73
355,707	435,03
356,153	390,55
356,599	474,56
357,045	452,32
357,491	464,68
357,937	400,44
358,382	467,15
358,828	355,96
359,274	454,8
359,719	420,2
360,165	412,79
360,61	432,56
361,056	410,32
361,501	449,85
361,947	432,56
362,392	459,74
362,837	425,14
363,282	402,91
363,727	467,15
364,173	454,8
364,618	417,73
365,063	365,84
365,508	415,26
365,952	412,79
366,397	425,14
366,842	393,02
367,287	489,39
367,732	469,62
368,176	479,5
368,621	435,03
369,065	380,67
369,51	472,09
369,954	472,09
370,399	402,91
370,843	395,49
371,287	457,27
371,732	425,14
372,176	454,8
372,62	410,32
373,064	464,68
373,508	472,09
373,952	464,68
374,396	509,15
374,84	407,85
375,284	454,8
375,728	390,55
376,172	395,49
376,615	402,91
377,059	437,5
377,503	420,2
377,946	427,62
378,39	469,62
378,833	365,84
379,277	407,85
379,72	393,02
380,163	447,38
380,607	442,44
381,05	439,97
381,493	452,32
381,936	444,91
382,379	363,37
382,822	405,38
383,265	402,91
383,708	449,85
384,151	439,97
384,594	400,44
385,037	454,8
385,479	405,38
385,922	447,38
386,365	402,91
386,807	383,14
387,25	459,74
387,692	400,44
388,135	422,67
388,577	410,32
389,019	405,38
389,461	467,15
389,904	388,08
390,346	469,62
390,788	437,5
391,23	439,97
391,672	402,91
392,114	407,85
392,556	402,91
392,998	402,91
393,44	427,62
393,881	370,79
394,323	388,08
394,765	479,5
395,206	479,5
395,648	402,91
396,09	422,67
396,531	442,44
396,972	422,67
397,414	397,97
397,855	454,8
398,296	405,38
398,738	420,2
399,179	410,32
399,62	442,44
400,061	439,97
400,502	435,03
400,943	432,56
401,384	437,5
401,825	415,26
402,265	427,62
402,706	454,8
403,147	425,14
403,588	417,73
404,028	410,32
404,469	412,79
404,909	415,26
405,35	360,9
405,79	417,73
406,23	437,5
406,671	464,68
407,111	400,44
407,551	422,67
407,991	442,44
408,431	402,91
408,871	410,32
409,311	452,32
409,751	425,14
410,191	390,55
410,631	454,8
411,071	412,79
411,511	494,33
411,95	528,92
412,39	486,92
412,83	405,38
413,269	425,14
413,709	410,32
414,148	393,02
414,587	397,97
415,027	415,26
415,466	459,74
415,905	457,27
416,345	370,79
416,784	412,79
417,223	449,85
417,662	472,09
418,101	427,62
418,54	447,38
418,979	494,33
419,417	452,32
419,856	425,14
420,295	432,56
420,734	442,44
421,172	499,27
421,611	400,44
422,049	459,74
422,488	444,91
422,926	430,09
423,364	412,79
423,803	402,91
424,241	486,92
424,679	479,5
425,117	467,15
425,555	464,68
425,994	380,67
426,432	437,5
426,87	393,02
427,307	477,03
427,745	400,44
428,183	472,09
428,621	422,67
429,058	469,62
429,496	457,27
429,934	481,97
430,371	464,68
430,809	459,74
431,246	427,62
431,684	417,73
432,121	430,09
432,558	444,91
432,995	427,62
433,433	472,09
433,87	491,86
434,307	437,5
434,744	449,85
435,181	496,8
435,618	504,21
436,055	435,03
436,491	481,97
436,928	491,86
437,365	521,51
437,801	435,03
438,238	479,5
438,675	573,4
439,111	469,62
439,548	464,68
439,984	390,55
440,42	442,44
440,857	410,32
441,293	437,5
441,729	454,8
442,165	506,68
442,601	504,21
443,037	506,68
443,473	442,44
443,909	464,68
444,345	447,38
444,781	489,39
445,217	437,5
445,652	568,46
446,088	479,5
446,524	531,39
446,959	472,09
447,395	491,86
447,83	486,92
448,266	432,56
448,701	469,62
449,136	499,27
449,572	519,04
450,007	467,15
450,442	449,85
450,877	452,32
451,312	462,21
451,747	531,39
452,182	477,03
452,617	427,62
453,052	538,81
453,486	474,56
453,921	464,68
454,356	477,03
454,79	457,27
455,225	511,63
455,66	494,33
456,094	459,74
456,528	427,62
456,963	427,62
457,397	519,04
457,831	464,68
458,265	486,92
458,7	442,44
459,134	516,57
459,568	531,39
460,002	454,8
460,436	506,68
460,87	489,39
461,303	417,73
461,737	430,09
462,171	489,39
462,605	467,15
463,038	427,62
463,472	447,38
463,905	531,39
464,339	437,5
464,772	501,74
465,205	477,03
465,639	393,02
466,072	489,39
466,505	477,03
466,938	484,45
467,371	496,8
467,804	474,56
468,237	506,68
468,67	457,27
469,103	420,2
469,536	481,97
469,969	435,03
470,402	477,03
470,834	496,8
471,267	472,09
471,699	474,56
472,132	454,8
472,564	531,39
472,997	452,32
473,429	400,44
473,861	444,91
474,294	459,74
474,726	499,27
475,158	469,62
475,59	496,8
476,022	464,68
476,454	412,79
476,886	402,91
477,318	457,27
477,75	477,03
478,181	484,45
478,613	449,85
479,045	509,15
479,476	486,92
479,908	491,86
480,339	499,27
480,771	501,74
481,202	526,45
481,634	526,45
482,065	504,21
482,496	481,97
482,927	519,04
483,358	541,28
483,789	546,22
484,22	514,1
484,651	558,57
485,082	501,74
485,513	568,46
485,944	556,1
486,375	776,01
486,805	773,54
487,236	855,08
487,667	995,92
488,097	1055,22
488,527	1124,4
488,958	1119,46
489,388	1158,99
489,819	1205,94
490,249	1260,3
490,679	1527,15
491,109	1628,46
491,539	1924,97
491,969	2228,88
492,399	2310,42
492,829	2359,84
493,259	2337,6
493,689	2209,12
494,119	1989,21
494,548	1843,43
494,978	1912,61
495,408	1855,78
495,837	2216,53
496,267	2547,63
496,696	3091,22
497,126	3659,52
497,555	4403,25
497,984	5211,23
498,413	6508,44
498,843	7743,87
499,272	9357,36
499,701	11630,56
500,13	13874,11
500,559	16285,69
500,988	18860,34
501,417	21081,65
501,845	23671,13
502,274	25529,23
502,703	27318,14
503,131	29534,52
503,56	31770,66
503,988	33643,58
504,417	36470,26
504,845	39193,16
505,274	41261,28
505,702	43608,62
506,13	46116,55
506,558	47608,96
506,987	48886,4
507,415	50065,01
507,843	51115,13
508,271	50583,89
508,699	49234,8
509,126	47255,63
509,554	44735,33
509,982	41273,64
510,41	37671,1
510,837	33937,61
511,265	30043,52
511,693	27725,84
512,12	24224,61
512,547	22714,9
512,975	22638,31
513,402	22366,51
513,829	23278,26
514,257	24007,17
514,684	25012,82
515,111	26213,66
515,538	26067,88
515,965	25289,55
516,392	23671,13
516,819	21847,63
517,246	19221,09
517,672	16844,1
518,099	14766,1
518,526	13258,87
518,952	12011,07
519,379	11934,48
519,805	11996,25
520,232	13041,43
520,658	14822,93
521,085	16641,49
521,511	19942,58
521,937	22391,22
522,363	25437,81
522,789	27594,88
523,215	29670,41
523,641	30979,98
524,067	31437,09
524,493	31657
524,919	31859,61
525,345	31933,73
525,771	31293,78
526,196	30500,63
526,622	30273,31
527,047	29949,62
527,473	29408,5
527,898	29060,11
528,324	28701,83
528,749	28212,6
529,174	28091,52
529,6	27859,26
530,025	27033,99
530,45	27100,7
530,875	26015,99
531,3	25620,65
531,725	25173,42
532,15	24745,96
532,575	23784,79
532,999	23179,43
533,424	22808,8
533,849	22109,54
534,273	21358,39
534,698	20901,28
535,122	20293,45
535,547	19900,58
535,971	19717,73
536,396	19095,07
536,82	18793,62
537,244	18593,48
537,668	18425,46
538,092	17800,33
538,517	17236,97
538,941	16928,11
539,364	16443,82
539,788	16043,54
540,212	15354,17
540,636	15131,79
541,06	14667,26
541,483	14217,57
541,907	13696,21
542,331	13088,38
542,754	12690,57
543,178	11914,71
543,601	11823,29
544,024	11069,67
544,448	10706,45
544,871	10264,17
545,294	9841,65
545,717	9777,4
546,14	9310,41
546,563	8591,38
546,986	8176,28
547,409	7763,64
547,832	7336,18
548,255	6943,31
548,677	6520,79
549,1	6179,81
549,522	5922,84
549,945	5670,81
550,368	5290,3
550,79	4912,25
551,212	4623,16
551,635	4292,06
552,057	4037,56
552,479	4015,33
552,901	3834,95
553,323	3834,95
553,745	3654,58
554,167	3555,74
554,589	3279
555,011	3192,52
555,433	3098,63
555,855	2960,26
556,277	2807,07
556,698	2634,11
557,12	2639,05
557,541	2280,77
557,963	2068,28
558,384	1887,9
558,806	1954,62
559,227	1828,6
559,648	1858,25
560,069	1712,47
560,49	1492,56
560,912	1413,49
561,333	1299,83
561,754	1181,23
562,174	1238,06
562,595	1220,77
563,016	1329,48
563,437	1351,72
563,858	1351,72
564,278	1292,42
564,699	1386,31
565,119	1465,38
565,54	1591,4
565,96	1680,35
566,38	1754,48
566,801	1875,55
567,221	1974,38
567,641	2026,27
568,061	2164,64
568,481	2157,23
568,901	2223,94
569,321	2317,83
569,741	2332,66
570,161	2629,16
570,581	2834,25
571,001	2821,89
571,42	2987,44
571,84	3004,74
572,259	2896,02
572,679	2742,82
573,098	2572,33
573,518	2433,97
573,937	2159,7
574,356	2011,45
574,775	1766,83
575,195	1485,15
575,614	1460,44
576,033	1361,61
576,452	1213,35
576,871	1270,18
577,29	1361,61
577,708	1418,44
578,127	1591,4
578,546	1714,94
578,964	1781,65
579,383	1769,3
579,801	1840,96
580,22	1942,26
580,638	2097,93
581,057	2429,02
581,475	2634,11
581,893	2765,06
582,311	3155,46
582,73	3343,25
583,148	3844,83
583,566	4425,49
583,984	4650,34
584,401	4662,69
584,819	4766,47
585,237	4497,15
585,655	4373,6
586,072	4044,98
586,49	3726,23
586,908	3313,6
587,325	3167,82
587,742	3076,39
588,16	3022,03
588,577	3202,41
588,994	3308,66
589,412	3071,45
589,829	2878,72
590,246	2475,97
590,663	2362,31
591,08	2209,12
591,497	2169,58
591,914	2251,12
592,33	2300,54
592,747	2416,67
593,164	2656,34
593,58	2854,01
593,997	2960,26
594,413	2980,03
594,83	2977,56
595,246	2965,2
595,663	2905,9
596,079	2527,86
596,495	2409,26
596,911	2176,99
597,327	1853,31
597,743	1794,01
598,159	1655,64
598,575	1848,37
598,991	1890,37
599,407	1920,02
599,823	1954,62
600,238	1984,27
600,654	2006,5
601,07	2073,22
601,485	2028,74
601,901	2046,04
602,316	2026,27
602,731	1769,3
603,147	1630,93
603,562	1485,15
603,977	1467,85
604,392	1378,9
604,807	1191,12
605,222	1131,81
605,637	1005,8
606,052	1089,81
606,467	931,67
606,882	872,37
607,296	946,5
607,711	944,03
608,125	837,78
608,54	788,36
608,954	738,95
609,369	914,38
609,783	941,56
610,197	889,67
610,612	805,66
611,026	840,25
611,44	906,97
611,854	902,02
612,268	850,14
612,682	931,67
613,096	1003,33
613,51	1181,23
613,923	1243
614,337	1393,73
614,751	1247,95
615,164	1371,49
615,578	1243
615,991	1171,35
616,405	1102,16
616,818	976,15
617,231	904,49
617,645	919,32
618,058	813,07
618,471	902,02
618,884	973,68
619,297	1084,87
619,71	1047,81
620,123	1247,95
620,536	1163,94
620,948	1183,7
621,361	1116,99
621,774	934,14
622,186	887,2
622,599	706,82
623,011	657,41
623,424	687,06
623,836	640,11
624,248	583,28
624,661	561,04
625,073	561,04
625,485	575,87
625,897	692
626,309	682,12
626,721	696,94
627,133	766,13
627,545	827,9
627,956	815,54
628,368	795,78
628,78	822,96
629,191	768,6
629,603	810,6
630,014	798,25
630,426	645,05
630,837	704,35
631,248	800,72
631,66	795,78
632,071	771,07
632,482	852,61
632,893	872,37
633,304	894,61
633,715	813,07
634,126	869,9
634,536	941,56
634,947	837,78
635,358	808,13
635,769	768,6
636,179	746,36
636,59	837,78
637	751,3
637,41	771,07
637,821	667,29
638,231	714,24
638,641	677,17
639,051	706,82
639,462	657,41
639,872	674,7
640,282	758,71
640,691	659,88
641,101	674,7
641,511	615,4
641,921	649,99
642,331	657,41
642,74	632,7
643,15	585,75
643,559	551,16
643,969	489,39
644,378	600,58
644,787	499,27
645,197	565,98
645,606	563,51
646,015	551,16
646,424	568,46
646,833	565,98
647,242	575,87
647,651	538,81
648,06	514,1
648,469	580,81
648,877	570,93
649,286	556,1
649,694	575,87
650,103	603,05
650,512	598,11
650,92	573,4
651,328	501,74
651,737	536,33
652,145	568,46
652,553	546,22
652,961	489,39
653,369	479,5
653,777	506,68
654,185	531,39
654,593	511,63
655,001	496,8
655,409	491,86
655,816	556,1
656,224	499,27
656,631	514,1
657,039	417,73
657,446	499,27
657,854	486,92
658,261	437,5
658,668	459,74
659,076	501,74
659,483	541,28
659,89	496,8
660,297	412,79
660,704	501,74
661,111	489,39
661,518	449,85
661,924	373,26
662,331	464,68
662,738	484,45
663,144	496,8
663,551	417,73
663,957	514,1
664,364	523,98
664,77	469,62
665,177	491,86
665,583	481,97
665,989	435,03
666,395	444,91
666,801	467,15
667,207	474,56
667,613	533,86
668,019	449,85
668,425	479,5
668,83	481,97
669,236	474,56
669,642	425,14
670,047	501,74
670,453	486,92
670,858	405,38
671,264	469,62
671,669	370,79
672,074	449,85
672,48	417,73
672,885	454,8
673,29	477,03
673,695	442,44
674,1	462,21
674,505	481,97
674,909	370,79
675,314	481,97
675,719	430,09
676,124	444,91
676,528	385,61
676,933	402,91
677,337	479,5
677,742	501,74
678,146	459,74
678,55	459,74
678,955	365,84
679,359	427,62
679,763	474,56
680,167	477,03
680,571	462,21
680,975	479,5
681,379	412,79
681,782	351,02
682,186	452,32
682,59	479,5
682,993	501,74
683,397	430,09
683,8	358,43
684,204	365,84
684,607	447,38
685,011	390,55
685,414	452,32
685,817	477,03
686,22	410,32
686,623	501,74
687,026	457,27
687,429	454,8
687,832	402,91
688,235	432,56
688,638	469,62
689,04	496,8
689,443	459,74
689,845	449,85
690,248	410,32
690,65	457,27
691,053	467,15
691,455	447,38
691,857	447,38
692,26	467,15
692,662	412,79
693,064	501,74
693,466	481,97
693,868	491,86
694,27	481,97
694,671	435,03
695,073	435,03
695,475	435,03
695,877	454,8
696,278	449,85
696,68	425,14
697,081	459,74
697,483	528,92
697,884	400,44
698,285	378,2
698,686	415,26
699,087	481,97
699,489	472,09
699,89	432,56
700,291	452,32
700,691	395,49
701,092	444,91
701,493	469,62
701,894	331,25
702,294	420,2
702,695	415,26
703,096	533,86
703,496	422,67
703,896	383,14
704,297	393,02
704,697	444,91
705,097	469,62
705,497	484,45
705,897	410,32
706,297	415,26
706,697	439,97
707,097	452,32
707,497	449,85
707,897	477,03
708,297	439,97
708,696	422,67
709,096	474,56
709,495	452,32
709,895	501,74
710,294	417,73
710,694	410,32
711,093	479,5
711,492	439,97
711,891	528,92
712,29	407,85
712,689	442,44
713,088	442,44
713,487	472,09
713,886	397,97
714,285	402,91
714,684	469,62
715,082	479,5
715,481	390,55
715,879	407,85
716,278	420,2
716,676	402,91
717,075	447,38
717,473	437,5
717,871	486,92
718,269	397,97
718,667	425,14
719,065	388,08
719,463	388,08
719,861	447,38
720,259	442,44
720,657	405,38
721,054	432,56
721,452	397,97
721,85	457,27
722,247	390,55
722,645	420,2
723,042	444,91
723,439	407,85
723,837	422,67
724,234	447,38
724,631	422,67
725,028	444,91
725,425	378,2
725,822	454,8
726,219	442,44
726,616	410,32
727,012	425,14
727,409	427,62
727,806	454,8
728,202	385,61
728,599	407,85
728,995	370,79
729,392	407,85
729,788	459,74
730,184	390,55
730,58	417,73
730,977	407,85
731,373	481,97
731,769	427,62
732,165	452,32
732,56	417,73
732,956	427,62
733,352	400,44
733,748	412,79
734,143	454,8
734,539	462,21
734,934	402,91
735,33	462,21
735,725	454,8
736,12	469,62
736,516	400,44
736,911	494,33
737,306	415,26
737,701	420,2
738,096	368,31
738,491	353,49
738,886	444,91
739,28	375,73
739,675	481,97
740,07	417,73
740,464	385,61
740,859	351,02
741,253	410,32
741,648	365,84
742,042	417,73
742,437	430,09
742,831	477,03
743,225	437,5
743,619	444,91
744,013	313,96
744,407	452,32
744,801	447,38
745,195	338,66
745,588	444,91
745,982	469,62
746,376	375,73
746,769	427,62
747,163	432,56
747,556	400,44
747,95	397,97
748,343	395,49
748,736	447,38
749,13	355,96
749,523	397,97
749,916	422,67
750,309	385,61
750,702	432,56
751,095	405,38
751,487	417,73
751,88	395,49
752,273	400,44
752,665	439,97
753,058	390,55
753,45	378,2
753,843	410,32
754,235	452,32
754,627	373,26
755,02	417,73
755,412	447,38
755,804	407,85
756,196	430,09
756,588	385,61
756,98	383,14
757,372	442,44
757,764	397,97
758,155	397,97
758,547	430,09
758,938	435,03
759,33	439,97
759,721	353,49
760,113	378,2
760,504	412,79
760,895	420,2
761,287	432,56
761,678	331,25
762,069	353,49
762,46	435,03
762,851	417,73
763,242	449,85
763,632	491,86
764,023	439,97
764,414	380,67
764,804	422,67
765,195	447,38
765,586	459,74
765,976	407,85
766,366	368,31
766,757	459,74
767,147	358,43
767,537	417,73
767,927	353,49
768,317	417,73
768,707	378,2
769,097	397,97
769,487	437,5
769,877	439,97
770,266	447,38
770,656	358,43
771,045	402,91
771,435	402,91
771,824	348,55
772,214	412,79
772,603	363,37
772,992	444,91
773,382	454,8
773,771	373,26
774,16	454,8
774,549	390,55
774,938	336,19
775,327	385,61
775,715	405,38
776,104	395,49
776,493	397,97
776,881	454,8
777,27	435,03
777,658	400,44
778,047	405,38
778,435	412,79
778,823	355,96
779,212	375,73
779,6	437,5
779,988	370,79
780,376	385,61
780,764	484,45
781,152	395,49
781,539	496,8
781,927	402,91
782,315	405,38
782,702	435,03
783,09	380,67
783,477	442,44
783,865	425,14
784,252	439,97
784,64	464,68
785,027	437,5
785,414	425,14
785,801	385,61
786,188	393,02
786,575	375,73
786,962	442,44
787,349	400,44
787,736	395,49
788,122	430,09
788,509	341,14
788,895	415,26
789,282	467,15
789,668	370,79
790,055	437,5
790,441	402,91
790,827	385,61
791,213	417,73
791,6	407,85
791,986	373,26
792,372	375,73
792,757	435,03
793,143	491,86
793,529	427,62
793,915	420,2
794,3	415,26
794,686	400,44
795,072	415,26
795,457	422,67
795,842	417,73
796,228	385,61
796,613	427,62
796,998	415,26
797,383	405,38
797,768	442,44
798,153	415,26
798,538	427,62
798,923	459,74
799,308	430,09
799,692	365,84
800,077	390,55
800,462	442,44
800,846	407,85
801,231	427,62
801,615	425,14
801,999	407,85
802,384	380,67
802,768	422,67
803,152	432,56
803,536	489,39
803,92	383,14
804,304	402,91
804,688	484,45
805,072	430,09
805,455	457,27
805,839	405,38
806,223	459,74
806,606	464,68
806,99	417,73
807,373	437,5
807,756	430,09
808,139	427,62
808,523	415,26
808,906	437,5
809,289	388,08
809,672	432,56
810,055	373,26
810,438	415,26
810,82	472,09
811,203	442,44
811,586	449,85
811,968	385,61
812,351	425,14
812,733	435,03
813,116	489,39
813,498	447,38
813,88	449,85
814,263	454,8
814,645	474,56
815,027	437,5
815,409	516,57
815,791	481,97
816,172	538,81
816,554	444,91
816,936	565,98
817,318	570,93
817,699	533,86
818,081	570,93
818,462	617,87
818,844	546,22
819,225	622,81
819,606	603,05
819,987	696,94
820,368	610,46
820,749	600,58
821,13	598,11
821,511	617,87
821,892	615,4
822,273	548,69
822,654	578,34
823,034	536,33
823,415	570,93
823,795	565,98
824,176	580,81
824,556	590,69
824,937	516,57
825,317	598,11
825,697	526,45
826,077	612,93
826,457	677,17
826,837	684,59
827,217	704,35
827,597	788,36
827,977	716,71
828,356	798,25
828,736	778,48
829,116	877,31
829,495	978,62
829,874	1010,74
830,254	993,45
830,633	1116,99
831,012	1037,92
831,392	1215,82
831,771	1247,95
832,15	1233,12
832,529	1280,07
832,908	1285,01
833,286	1383,84
833,665	1455,5
834,044	1556,81
834,422	1435,73
834,801	1522,21
835,179	1591,4
835,558	1583,98
835,936	1534,57
836,314	1490,09
836,693	1507,39
837,071	1393,73
837,449	1485,15
837,827	1480,21
838,205	1408,55
838,583	1445,62
838,961	1235,59
839,338	1277,6
839,716	1112,05
840,094	1070,04
840,471	1035,45
840,849	914,38
841,226	941,56
841,603	808,13
841,981	837,78
842,358	805,66
842,735	773,54
843,112	664,82
843,489	736,47
843,866	771,07
844,243	822,96
844,62	729,06
844,996	699,41
845,373	694,47
845,749	785,89
846,126	714,24
846,502	795,78
846,879	771,07
847,255	818,01
847,631	818,01
848,008	818,01
848,384	852,61
848,76	835,31
849,136	731,53
849,512	800,72
849,887	800,72
850,263	714,24
850,639	679,64
851,014	687,06
851,39	667,29
851,765	711,77
852,141	763,65
852,516	701,88
852,892	704,35
853,267	778,48
853,642	790,83
854,017	822,96
854,392	845,19
854,767	916,85
855,142	904,49
855,517	934,14
855,891	1030,51
856,266	1104,64
856,641	1270,18
857,015	1257,83
857,39	1331,96
857,764	1514,8
858,138	1299,83
858,513	1366,55
858,887	1470,32
859,261	1448,09
859,635	1420,91
860,009	1470,32
860,383	1361,61
860,757	1339,37
861,13	1356,66
861,504	1201
861,878	1166,41
862,251	1215,82
862,625	1020,63
862,998	1074,98
863,372	1005,8
863,745	1028,04
864,118	924,26
864,491	892,14
864,864	948,97
865,237	909,44
865,61	879,79
865,983	916,85
866,356	936,62
866,729	953,91
867,101	973,68
867,474	919,32
867,846	973,68
868,219	1037,92
868,591	961,32
868,964	951,44
869,336	1023,1
869,708	990,98
870,08	953,91
870,452	981,09
870,824	1065,1
871,196	995,92
871,568	946,5
871,94	1089,81
872,311	1020,63
872,683	1013,21
873,055	968,74
873,426	1072,51
873,797	1040,39
874,169	1025,57
874,54	877,31
874,911	963,8
875,282	921,79
875,654	986,03
876,025	939,09
876,395	884,73
876,766	852,61
877,137	906,97
877,508	855,08
877,878	879,79
878,249	748,83
878,62	847,66
878,99	766,13
879,36	753,77
879,731	716,71
880,101	617,87
880,471	598,11
880,841	585,75
881,211	546,22
881,581	531,39
881,951	551,16
882,321	551,16
882,691	615,4
883,06	531,39
883,43	558,57
883,799	523,98
884,169	617,87
884,538	570,93
884,908	598,11
885,277	551,16
885,646	612,93
886,015	615,4
886,384	622,81
886,753	704,35
887,122	696,94
887,491	696,94
887,86	773,54
888,228	751,3
888,597	818,01
888,966	808,13
889,334	818,01
889,703	892,14
890,071	894,61
890,439	983,56
890,807	963,8
891,176	1008,27
891,544	1099,69
891,912	1099,69
892,28	1040,39
892,647	1060,16
893,015	1042,86
893,383	1030,51
893,751	1134,29
894,118	1163,94
894,486	1055,22
894,853	1040,39
895,22	986,03
895,588	1121,93
895,955	1156,52
896,322	1131,81
896,689	1149,11
897,056	1062,63
897,423	1084,87
897,79	1141,7
898,157	1070,04
898,523	1040,39
898,89	1104,64
899,257	1092,28
899,623	1074,98
899,99	1055,22
900,356	981,09
900,722	1028,04
901,089	1055,22
901,455	1018,15
901,821	904,49
902,187	911,91
902,553	993,45
902,919	914,38
903,285	820,48
903,65	872,37
904,016	813,07
904,382	773,54
904,747	778,48
905,113	736,47
905,478	734
905,843	709,3
906,208	640,11
906,574	647,52
906,939	654,94
907,304	610,46
907,669	588,22
908,034	583,28
908,398	511,63
908,763	620,34
909,128	494,33
909,492	546,22
909,857	548,69
910,221	519,04
910,586	499,27
910,95	523,98
911,314	457,27
911,679	491,86
912,043	481,97
912,407	427,62
912,771	479,5
913,135	521,51
913,498	474,56
913,862	435,03
914,226	447,38
914,589	442,44
914,953	430,09
915,316	504,21
915,68	474,56
916,043	496,8
916,406	474,56
916,77	496,8
917,133	484,45
917,496	509,15
917,859	486,92
918,222	499,27
918,584	472,09
918,947	499,27
919,31	561,04
919,673	536,33
920,035	472,09
920,398	504,21
920,76	546,22
921,122	583,28
921,485	516,57
921,847	578,34
922,209	528,92
922,571	630,23
922,933	558,57
923,295	585,75
923,657	501,74
924,018	620,34
924,38	612,93
924,742	516,57
925,103	615,4
925,465	568,46
925,826	504,21
926,187	519,04
926,549	556,1
926,91	511,63
927,271	526,45
927,632	578,34
927,993	565,98
928,354	541,28
928,715	573,4
929,075	590,69
929,436	595,64
929,797	551,16
930,157	568,46
930,518	588,22
930,878	523,98
931,238	561,04
931,598	543,75
931,959	467,15
932,319	605,52
932,679	578,34
933,039	519,04
933,399	607,99
933,758	575,87
934,118	551,16
934,478	570,93
934,837	541,28
935,197	531,39
935,556	521,51
935,916	558,57
936,275	519,04
936,634	528,92
936,993	489,39
937,353	479,5
937,712	511,63
938,07	506,68
938,429	501,74
938,788	551,16
939,147	516,57
939,506	519,04
939,864	496,8
940,223	519,04
940,581	568,46
940,939	521,51
941,298	501,74
941,656	412,79
942,014	496,8
942,372	477,03
942,73	410,32
943,088	474,56
943,446	464,68
943,804	457,27
944,161	437,5
944,519	447,38
944,877	425,14
945,234	415,26
945,592	457,27
945,949	422,67
946,306	457,27
946,663	444,91
947,021	504,21
947,378	506,68
947,735	469,62
948,091	442,44
948,448	504,21
948,805	430,09
949,162	388,08
949,518	407,85
949,875	430,09
950,231	449,85
950,588	457,27
950,944	437,5
951,3	427,62
951,657	462,21
952,013	417,73
952,369	388,08
952,725	437,5
953,081	388,08
953,436	415,26
953,792	412,79
954,148	447,38
954,503	397,97
954,859	452,32
955,214	395,49
955,57	420,2
955,925	432,56
956,28	427,62
956,635	444,91
956,991	410,32
957,346	397,97
957,701	454,8
958,055	432,56
958,41	454,8
958,765	521,51
959,12	472,09
959,474	370,79
959,829	415,26
960,183	464,68
960,537	430,09
960,892	454,8
961,246	378,2
961,6	410,32
961,954	425,14
962,308	368,31
962,662	494,33
963,016	427,62
963,37	373,26
963,723	405,38
964,077	417,73
964,43	410,32
964,784	378,2
965,137	415,26
965,491	415,26
965,844	397,97
966,197	397,97
966,55	383,14
966,903	425,14
967,256	331,25
967,609	432,56
967,962	452,32
968,315	474,56
968,667	405,38
969,02	467,15
969,372	425,14
969,725	405,38
970,077	454,8
970,429	449,85
970,782	358,43
971,134	400,44
971,486	375,73
971,838	385,61
972,19	397,97
972,542	447,38
972,893	397,97
973,245	370,79
973,597	464,68
973,948	467,15
974,3	452,32
974,651	397,97
975,003	412,79
975,354	415,26
975,705	432,56
976,056	400,44
976,407	412,79
976,758	459,74
977,109	435,03
977,46	474,56
977,811	388,08
978,161	390,55
978,512	447,38
978,862	439,97
979,213	360,9
979,563	397,97
979,913	353,49
980,264	378,2
980,614	407,85
980,964	402,91
981,314	427,62
981,664	415,26
982,014	407,85
982,363	407,85
982,713	420,2
983,063	402,91
983,412	400,44
983,762	437,5
984,111	393,02
984,461	417,73
984,81	449,85
985,159	412,79
985,508	452,32
985,857	439,97
986,206	417,73
986,555	373,26
986,904	454,8
987,253	464,68
987,601	417,73
987,95	373,26
988,298	375,73
988,647	415,26
988,995	444,91
989,343	407,85
989,692	380,67
990,04	504,21
990,388	449,85
990,736	351,02
991,084	363,37
991,432	373,26
991,779	444,91
992,127	373,26
992,475	422,67
992,822	474,56
993,17	410,32
993,517	415,26
993,864	430,09
994,212	395,49
994,559	390,55
994,906	407,85
995,253	430,09
995,6	422,67
995,947	365,84
996,293	397,97
996,64	422,67
996,987	358,43
997,333	420,2
997,68	405,38
998,026	442,44
998,373	385,61
998,719	343,61
999,065	397,97
999,411	360,9
999,757	375,73
1000,103	375,73
1000,449	454,8
1000,795	417,73
1001,141	402,91
1001,486	459,74
1001,832	420,2
1002,177	370,79
1002,523	422,67
1002,868	400,44
1003,213	397,97
1003,559	417,73
1003,904	422,67
1004,249	355,96
1004,594	417,73
1004,939	393,02
1005,283	383,14
1005,628	430,09
1005,973	430,09
1006,318	452,32
1006,662	410,32
1007,007	380,67
1007,351	393,02
1007,695	407,85
1008,039	459,74
1008,384	348,55
1008,728	393,02
1009,072	459,74
1009,416	393,02
1009,759	368,31
1010,103	417,73
1010,447	355,96
1010,791	363,37
1011,134	370,79
1011,478	388,08
1011,821	457,27
1012,164	385,61
1012,508	435,03
1012,851	373,26
1013,194	363,37
1013,537	427,62
1013,88	385,61
1014,223	385,61
1014,565	375,73
1014,908	385,61
1015,251	442,44
1015,593	444,91
1015,936	380,67
1016,278	430,09
1016,621	365,84
1016,963	400,44
1017,305	331,25
1017,647	383,14
1017,989	383,14
1018,331	390,55
1018,673	481,97
1019,015	358,43
1019,356	351,02
1019,698	390,55
1020,04	378,2
1020,381	430,09
1020,723	363,37
1021,064	417,73
1021,405	353,49
1021,746	383,14
1022,088	407,85
1022,429	365,84
1022,77	402,91
1023,11	365,84
1023,451	439,97
1023,792	439,97
1024,133	439,97
