Data from FLMS187131_15-15-09-075.txt Node
Date: Mon Dec 23 15:15:09 MSK 2024
User: FemtoLab1
Spectrometer: FLMS18713
Trigger mode: 0
Integration Time (sec): 2,800000E-2
Scans to average: 1
Electric dark correction enabled: true
Nonlinearity correction enabled: false
Boxcar width: 0
XAxis mode: Wavelengths
Number of Pixels in Spectrum: 2048
>>>>>Begin Spectral Data<<<<<
190,252	-22,86
190,715	-22,86
191,177	-22,86
191,64	-52,51
192,102	-96,98
192,565	-101,92
193,027	-89,57
193,49	-153,81
193,952	-52,51
194,415	-148,87
194,877	-22,86
195,339	-79,69
195,802	-27,8
196,264	11,74
196,726	43,86
197,188	56,21
197,65	29,03
198,112	127,87
198,574	108,1
199,036	125,4
199,498	174,81
199,96	157,52
200,421	201,99
200,883	206,94
201,345	239,06
201,807	204,46
202,268	300,83
202,73	387,31
203,191	276,12
203,653	335,42
204,114	293,42
204,576	263,77
205,037	350,25
205,498	335,42
205,96	419,43
206,421	416,96
206,882	367,54
207,343	397,19
207,804	350,25
208,265	347,78
208,726	414,49
209,187	365,07
209,648	374,96
210,109	451,55
210,57	389,78
211,031	384,84
211,492	468,85
211,952	419,43
212,413	397,19
212,874	392,25
213,334	365,07
213,795	397,19
214,255	397,19
214,716	414,49
215,176	397,19
215,636	345,3
216,097	379,9
216,557	365,07
217,017	409,55
217,477	384,84
217,938	365,07
218,398	382,37
218,858	320,6
219,318	426,84
219,778	399,66
220,238	345,3
220,698	367,54
221,157	303,3
221,617	389,78
222,077	303,3
222,537	449,08
222,996	409,55
223,456	436,73
223,915	402,13
224,375	347,78
224,834	421,9
225,294	352,72
225,753	389,78
226,213	337,89
226,672	350,25
227,131	416,96
227,59	308,24
228,05	352,72
228,509	360,13
228,968	397,19
229,427	330,48
229,886	419,43
230,345	426,84
230,804	362,6
231,263	379,9
231,721	407,08
232,18	397,19
232,639	419,43
233,098	332,95
233,556	337,89
234,015	399,66
234,473	404,61
234,932	318,13
235,39	412,02
235,849	325,54
236,307	367,54
236,765	419,43
237,224	345,3
237,682	431,79
238,14	379,9
238,598	325,54
239,056	313,18
239,514	389,78
239,972	412,02
240,43	392,25
240,888	330,48
241,346	402,13
241,804	352,72
242,262	397,19
242,72	382,37
243,177	387,31
243,635	342,83
244,093	402,13
244,55	374,96
245,008	372,48
245,465	439,2
245,923	352,72
246,38	372,48
246,837	439,2
247,295	392,25
247,752	377,43
248,209	352,72
248,666	392,25
249,123	342,83
249,58	372,48
250,037	424,37
250,494	382,37
250,951	382,37
251,408	352,72
251,865	362,6
252,322	404,61
252,779	441,67
253,235	416,96
253,692	337,89
254,149	372,48
254,605	468,85
255,062	441,67
255,518	409,55
255,975	374,96
256,431	352,72
256,887	342,83
257,344	412,02
257,8	357,66
258,256	399,66
258,712	392,25
259,168	407,08
259,625	421,9
260,081	404,61
260,537	402,13
260,992	451,55
261,448	414,49
261,904	451,55
262,36	434,26
262,816	412,02
263,272	387,31
263,727	350,25
264,183	412,02
264,638	414,49
265,094	397,19
265,549	389,78
266,005	446,61
266,46	402,13
266,916	370,01
267,371	374,96
267,826	426,84
268,281	409,55
268,737	372,48
269,192	402,13
269,647	439,2
270,102	374,96
270,557	387,31
271,012	402,13
271,467	402,13
271,921	372,48
272,376	444,14
272,831	424,37
273,286	387,31
273,74	416,96
274,195	402,13
274,649	458,96
275,104	335,42
275,558	429,31
276,013	379,9
276,467	426,84
276,922	362,6
277,376	399,66
277,83	416,96
278,284	362,6
278,739	444,14
279,193	426,84
279,647	491,09
280,101	414,49
280,555	456,49
281,009	468,85
281,462	414,49
281,916	436,73
282,37	444,14
282,824	414,49
283,278	357,66
283,731	379,9
284,185	404,61
284,638	463,91
285,092	389,78
285,545	449,08
285,999	382,37
286,452	399,66
286,905	419,43
287,359	412,02
287,812	412,02
288,265	451,55
288,718	476,26
289,171	491,09
289,624	421,9
290,077	372,48
290,53	402,13
290,983	439,2
291,436	392,25
291,889	412,02
292,342	397,19
292,794	441,67
293,247	332,95
293,7	407,08
294,152	362,6
294,605	429,31
295,057	471,32
295,51	466,38
295,962	444,14
296,414	451,55
296,867	412,02
297,319	441,67
297,771	379,9
298,223	399,66
298,675	367,54
299,128	431,79
299,58	402,13
300,032	397,19
300,483	392,25
300,935	449,08
301,387	402,13
301,839	451,55
302,291	444,14
302,742	402,13
303,194	382,37
303,646	461,44
304,097	451,55
304,549	379,9
305	456,49
305,451	456,49
305,903	446,61
306,354	441,67
306,805	407,08
307,257	414,49
307,708	488,62
308,159	468,85
308,61	426,84
309,061	399,66
309,512	389,78
309,963	441,67
310,414	461,44
310,865	350,25
311,315	486,14
311,766	412,02
312,217	416,96
312,668	372,48
313,118	372,48
313,569	434,26
314,019	441,67
314,47	419,43
314,92	446,61
315,37	456,49
315,821	394,72
316,271	436,73
316,721	451,55
317,171	439,2
317,622	488,62
318,072	404,61
318,522	458,96
318,972	481,2
319,422	421,9
319,872	456,49
320,321	458,96
320,771	392,25
321,221	397,19
321,671	372,48
322,12	463,91
322,57	446,61
323,019	471,32
323,469	458,96
323,918	402,13
324,368	379,9
324,817	449,08
325,267	456,49
325,716	466,38
326,165	530,62
326,614	416,96
327,063	446,61
327,512	355,19
327,961	365,07
328,41	481,2
328,859	439,2
329,308	434,26
329,757	444,14
330,206	449,08
330,655	412,02
331,103	392,25
331,552	399,66
332,001	493,56
332,449	421,9
332,898	441,67
333,346	387,31
333,794	486,14
334,243	439,2
334,691	441,67
335,139	456,49
335,588	414,49
336,036	449,08
336,484	471,32
336,932	382,37
337,38	414,49
337,828	409,55
338,276	347,78
338,724	426,84
339,172	421,9
339,619	414,49
340,067	352,72
340,515	454,02
340,962	454,02
341,41	451,55
341,858	483,67
342,305	392,25
342,753	419,43
343,2	488,62
343,647	436,73
344,095	419,43
344,542	397,19
344,989	402,13
345,436	377,43
345,883	429,31
346,33	397,19
346,777	434,26
347,224	416,96
347,671	379,9
348,118	407,08
348,565	508,38
349,012	429,31
349,458	478,73
349,905	446,61
350,352	444,14
350,798	372,48
351,245	471,32
351,691	421,9
352,138	483,67
352,584	419,43
353,03	377,43
353,477	476,26
353,923	461,44
354,369	454,02
354,815	436,73
355,261	454,02
355,707	424,37
356,153	416,96
356,599	399,66
357,045	424,37
357,491	434,26
357,937	439,2
358,382	374,96
358,828	451,55
359,274	483,67
359,719	404,61
360,165	436,73
360,61	409,55
361,056	397,19
361,501	394,72
361,947	424,37
362,392	468,85
362,837	436,73
363,282	409,55
363,727	419,43
364,173	508,38
364,618	451,55
365,063	374,96
365,508	392,25
365,952	471,32
366,397	426,84
366,842	500,97
367,287	429,31
367,732	431,79
368,176	481,2
368,621	493,56
369,065	436,73
369,51	362,6
369,954	407,08
370,399	416,96
370,843	429,31
371,287	409,55
371,732	407,08
372,176	493,56
372,62	409,55
373,064	446,61
373,508	451,55
373,952	434,26
374,396	458,96
374,84	426,84
375,284	429,31
375,728	402,13
376,172	409,55
376,615	402,13
377,059	409,55
377,503	328,01
377,946	421,9
378,39	347,78
378,833	377,43
379,277	402,13
379,72	379,9
380,163	421,9
380,607	419,43
381,05	473,79
381,493	491,09
381,936	446,61
382,379	491,09
382,822	382,37
383,265	463,91
383,708	476,26
384,151	444,14
384,594	387,31
385,037	486,14
385,479	439,2
385,922	463,91
386,365	488,62
386,807	409,55
387,25	483,67
387,692	382,37
388,135	444,14
388,577	481,2
389,019	481,2
389,461	454,02
389,904	466,38
390,346	399,66
390,788	416,96
391,23	471,32
391,672	414,49
392,114	454,02
392,556	441,67
392,998	449,08
393,44	387,31
393,881	473,79
394,323	439,2
394,765	481,2
395,206	426,84
395,648	419,43
396,09	424,37
396,531	402,13
396,972	421,9
397,414	439,2
397,855	416,96
398,296	365,07
398,738	372,48
399,179	431,79
399,62	407,08
400,061	478,73
400,502	409,55
400,943	426,84
401,384	456,49
401,825	379,9
402,265	352,72
402,706	446,61
403,147	449,08
403,588	404,61
404,028	461,44
404,469	416,96
404,909	429,31
405,35	421,9
405,79	454,02
406,23	416,96
406,671	379,9
407,111	466,38
407,551	476,26
407,991	473,79
408,431	409,55
408,871	357,66
409,311	399,66
409,751	468,85
410,191	478,73
410,631	412,02
411,071	424,37
411,511	451,55
411,95	426,84
412,39	441,67
412,83	441,67
413,269	493,56
413,709	397,19
414,148	493,56
414,587	486,14
415,027	392,25
415,466	449,08
415,905	434,26
416,345	449,08
416,784	419,43
417,223	530,62
417,662	407,08
418,101	434,26
418,54	491,09
418,979	515,8
419,417	431,79
419,856	493,56
420,295	379,9
420,734	446,61
421,172	508,38
421,611	397,19
422,049	424,37
422,488	451,55
422,926	449,08
423,364	426,84
423,803	424,37
424,241	449,08
424,679	456,49
425,117	397,19
425,555	439,2
425,994	508,38
426,432	461,44
426,87	434,26
427,307	434,26
427,745	466,38
428,183	441,67
428,621	421,9
429,058	523,21
429,496	384,84
429,934	434,26
430,371	436,73
430,809	426,84
431,246	444,14
431,684	458,96
432,121	429,31
432,558	404,61
432,995	468,85
433,433	473,79
433,87	461,44
434,307	402,13
434,744	409,55
435,181	481,2
435,618	444,14
436,055	496,03
436,491	456,49
436,928	436,73
437,365	416,96
437,801	473,79
438,238	434,26
438,675	429,31
439,111	424,37
439,548	434,26
439,984	419,43
440,42	498,5
440,857	451,55
441,293	444,14
441,729	434,26
442,165	500,97
442,601	471,32
443,037	426,84
443,473	493,56
443,909	478,73
444,345	505,91
444,781	540,5
445,217	503,44
445,652	513,32
446,088	466,38
446,524	449,08
446,959	481,2
447,395	419,43
447,83	439,2
448,266	404,61
448,701	461,44
449,136	500,97
449,572	550,39
450,007	436,73
450,442	463,91
450,877	456,49
451,312	456,49
451,747	451,55
452,182	414,49
452,617	488,62
453,052	473,79
453,486	409,55
453,921	421,9
454,356	493,56
454,79	505,91
455,225	528,15
455,66	476,26
456,094	446,61
456,528	473,79
456,963	414,49
457,397	520,74
457,831	473,79
458,265	478,73
458,7	458,96
459,134	493,56
459,568	505,91
460,002	444,14
460,436	397,19
460,87	412,02
461,303	533,09
461,737	498,5
462,171	523,21
462,605	414,49
463,038	486,14
463,472	439,2
463,905	431,79
464,339	454,02
464,772	478,73
465,205	439,2
465,639	471,32
466,072	486,14
466,505	468,85
466,938	525,68
467,371	481,2
467,804	456,49
468,237	478,73
468,67	520,74
469,103	434,26
469,536	416,96
469,969	518,27
470,402	476,26
470,834	431,79
471,267	523,21
471,699	493,56
472,132	441,67
472,564	523,21
472,997	515,8
473,429	434,26
473,861	557,8
474,294	431,79
474,726	508,38
475,158	473,79
475,59	434,26
476,022	540,5
476,454	535,56
476,886	515,8
477,318	533,09
477,75	513,32
478,181	520,74
478,613	557,8
479,045	542,97
479,476	597,33
479,908	567,68
480,339	644,28
480,771	654,16
481,202	706,05
481,634	896,31
482,065	1034,68
482,496	1111,28
482,927	1254,59
483,358	1316,36
483,789	1286,71
484,22	1187,87
484,651	1158,22
485,082	1224,94
485,513	1496,73
485,944	1654,87
486,375	1694,4
486,805	1798,18
487,236	2010,67
487,667	1810,53
488,097	1731,47
488,527	1509,09
488,958	1299,06
489,388	1222,47
489,819	1308,95
490,249	1679,58
490,679	2388,72
491,109	3372,13
491,539	4716,28
491,969	6974,66
492,399	9299,75
492,829	12336,46
493,259	15763,56
493,689	19366,1
494,119	23489,98
494,548	27856,02
494,978	32703,87
495,408	36736,34
495,837	39782,93
496,267	43103,79
496,696	45124,96
497,126	46372,75
497,555	46456,76
497,984	46288,74
498,413	44771,63
498,843	43894,46
499,272	41930,12
499,701	41107,32
500,13	40143,68
500,559	39454,3
500,988	40131,32
501,417	40321,58
501,845	42216,74
502,274	44057,54
502,703	46511,12
503,131	49043,77
503,56	51880,33
503,988	52601,83
504,417	53511,11
504,845	53439,45
505,274	53330,73
505,702	51971,75
506,13	50405,22
506,558	48907,87
506,987	47341,33
507,415	45646,31
507,843	43504,07
508,271	41984,48
508,699	39827,41
509,126	38115,09
509,554	35780,11
509,982	33160,99
510,41	30312,07
510,837	28135,23
511,265	25876,85
511,693	24584,58
512,12	23107
512,547	23018,05
512,975	22961,22
513,402	22667,18
513,829	23331,85
514,257	23161,36
514,684	23813,67
515,111	24213,95
515,538	24577,17
515,965	25422,21
516,392	25412,32
516,819	25076,29
517,246	24337,49
517,672	23667,89
518,099	21965,46
518,526	20660,83
518,952	18832,39
519,379	17238,67
519,805	15509,06
520,232	14352,69
520,658	13141,96
521,085	12198,09
521,511	11721,21
521,937	11874,4
522,363	11780,51
522,789	12069,6
523,215	12778,74
523,641	13095,02
524,067	13695,44
524,493	14468,82
524,919	14839,45
525,345	15783,33
525,771	16233,03
526,196	16596,25
526,622	16929,81
527,047	17129,95
527,473	17335,04
527,898	16986,64
528,324	17132,42
528,749	17058,3
529,174	17107,72
529,6	16821,09
530,025	16922,4
530,45	16541,89
530,875	16578,95
531,3	16371,4
531,725	16153,96
532,15	15936,52
532,575	15439,88
532,999	15494,24
533,424	15173,02
533,849	15029,71
534,273	14817,22
534,698	14142,67
535,122	13809,1
535,547	13905,46
535,971	13962,29
536,396	13688,03
536,82	13188,91
537,244	12847,93
537,668	13065,37
538,092	13240,8
538,517	13421,17
538,941	13048,07
539,364	12319,16
539,788	11899,11
540,212	11832,4
540,636	11829,93
541,06	12477,3
541,483	12509,42
541,907	12373,52
542,331	11963,36
542,754	12047,37
543,178	11595,2
543,601	11644,61
544,024	11953,47
544,448	11862,05
544,871	12121,49
545,294	11958,41
545,717	11597,67
546,14	11101,02
546,563	10485,77
546,986	9989,13
547,409	9868,05
547,832	10176,91
548,255	11439,53
548,677	13040,66
549,1	14486,12
549,522	15168,08
549,945	16260,21
550,368	16971,82
550,79	17228,79
551,212	16986,64
551,635	17263,38
552,057	16860,63
552,479	16746,97
552,901	16850,75
553,323	17347,39
553,745	18162,78
554,167	18382,69
554,589	18701,43
555,011	18610,01
555,433	19005,35
555,855	19358,68
556,277	18733,55
556,698	17463,52
557,12	16870,51
557,541	15481,88
557,963	13655,9
558,384	11916,41
558,806	10302,93
559,227	8835,23
559,648	7720,86
560,069	6485,43
560,49	5684,86
560,912	4904,07
561,333	4362,95
561,754	3967,61
562,174	3656,28
562,595	3512,97
563,016	3414,13
563,437	3564,85
563,858	3673,57
564,278	3814,41
564,699	3891,01
565,119	3727,93
565,54	3688,4
565,96	3554,97
566,38	3458,61
566,801	3169,51
567,221	2905,13
567,641	2707,46
568,061	2566,62
568,481	2351,65
568,901	2077,39
569,321	1936,55
569,741	1941,49
570,161	1934,08
570,581	1887,13
571,001	1985,97
571,42	1911,84
571,84	1894,54
572,259	1953,84
572,679	2114,45
573,098	2494,97
573,518	2739,58
573,937	3021,26
574,356	3451,19
574,775	3661,22
575,195	3989,84
575,614	4362,95
576,033	4647,1
576,452	4842,3
576,871	4938,66
577,29	5541,55
577,708	5897,36
578,127	6863,47
578,546	7728,28
578,964	8728,98
579,383	9361,53
579,801	9514,72
580,22	9371,41
580,638	8454,71
581,057	7817,23
581,475	6828,88
581,893	5981,37
582,311	5292
582,73	4745,93
583,148	4555,67
583,566	4694,04
583,984	4664,39
584,401	4968,31
584,819	4723,69
585,237	4437,07
585,655	4269,05
586,072	3690,87
586,49	3441,31
586,908	3112,68
587,325	2554,27
587,742	2410,96
588,16	2245,41
588,577	2163,87
588,994	2163,87
589,412	2161,4
589,829	2223,17
590,246	2282,47
590,663	2336,83
591,08	2410,96
591,497	2472,73
591,914	2880,42
592,33	2831
592,747	2897,72
593,164	2840,89
593,58	2658,04
593,997	2230,58
594,413	2111,98
594,83	1936,55
595,246	1731,47
595,663	1605,45
596,079	1410,25
596,495	1242,23
596,911	1140,93
597,327	1012,44
597,743	1009,97
598,159	1113,75
598,575	1138,46
598,991	1143,4
599,407	1093,98
599,823	1101,39
600,238	975,38
600,654	982,79
601,07	1024,8
601,485	990,2
601,901	1024,8
602,316	1163,16
602,731	1286,71
603,147	1336,13
603,562	1378,13
603,977	1350,95
604,392	1217,52
604,807	1081,63
605,222	977,85
605,637	921,02
606,052	827,13
606,467	834,54
606,882	930,9
607,296	1042,09
607,711	1116,22
608,125	1148,34
608,54	1103,86
608,954	1135,98
609,369	1044,56
609,783	982,79
610,197	992,67
610,612	921,02
611,026	844,42
611,44	807,36
611,854	807,36
612,268	753
612,682	725,82
613,096	723,35
613,51	678,87
613,923	718,41
614,337	671,46
614,751	688,76
615,164	646,75
615,578	644,28
615,991	659,11
616,405	607,22
616,818	644,28
617,231	639,34
617,645	735,7
618,058	659,11
618,471	673,93
618,884	715,94
619,297	822,18
619,71	713,46
620,123	777,71
620,536	814,77
620,948	841,95
621,361	849,36
621,774	765,35
622,186	812,3
622,599	812,3
623,011	735,7
623,424	755,47
623,836	738,17
624,248	755,47
624,661	676,4
625,073	629,46
625,485	580,04
625,897	619,57
626,309	629,46
626,721	619,57
627,133	535,56
627,545	634,4
627,956	688,76
628,368	664,05
628,78	639,34
629,191	607,22
629,603	631,93
630,014	649,22
630,426	602,28
630,837	629,46
631,248	629,46
631,66	597,33
632,071	609,69
632,482	671,46
632,893	683,81
633,304	678,87
633,715	708,52
634,126	678,87
634,536	696,17
634,947	785,12
635,358	748,06
635,769	797,47
636,179	693,7
636,59	753
637	748,06
637,41	698,64
637,821	673,93
638,231	636,87
638,641	686,29
639,051	599,8
639,462	545,45
639,872	602,28
640,282	560,27
640,691	535,56
641,101	589,92
641,511	542,97
641,921	533,09
642,331	520,74
642,74	523,21
643,15	486,14
643,559	577,57
643,969	478,73
644,378	510,85
644,787	528,15
645,197	533,09
645,606	624,51
646,015	659,11
646,424	634,4
646,833	540,5
647,242	547,92
647,651	498,5
648,06	575,1
648,469	533,09
648,877	496,03
649,286	520,74
649,694	461,44
650,103	493,56
650,512	542,97
650,92	547,92
651,328	530,62
651,737	481,2
652,145	626,98
652,553	607,22
652,961	614,63
653,369	614,63
653,777	629,46
654,185	594,86
654,593	575,1
655,001	617,1
655,409	577,57
655,816	584,98
656,224	636,87
656,631	552,86
657,039	624,51
657,446	545,45
657,854	612,16
658,261	535,56
658,668	592,39
659,076	488,62
659,483	542,97
659,89	478,73
660,297	562,74
660,704	542,97
661,111	520,74
661,518	547,92
661,924	545,45
662,331	562,74
662,738	547,92
663,144	560,27
663,551	560,27
663,957	547,92
664,364	503,44
664,77	441,67
665,177	481,2
665,583	486,14
665,989	451,55
666,395	434,26
666,801	461,44
667,207	461,44
667,613	478,73
668,019	486,14
668,425	458,96
668,83	496,03
669,236	496,03
669,642	471,32
670,047	508,38
670,453	505,91
670,858	468,85
671,264	503,44
671,669	481,2
672,074	535,56
672,48	533,09
672,885	540,5
673,29	414,49
673,695	500,97
674,1	409,55
674,505	419,43
674,909	441,67
675,314	513,32
675,719	426,84
676,124	471,32
676,528	505,91
676,933	476,26
677,337	399,66
677,742	434,26
678,146	461,44
678,55	409,55
678,955	493,56
679,359	421,9
679,763	449,08
680,167	486,14
680,571	407,08
680,975	355,19
681,379	421,9
681,782	520,74
682,186	468,85
682,59	414,49
682,993	478,73
683,397	446,61
683,8	392,25
684,204	416,96
684,607	384,84
685,011	412,02
685,414	429,31
685,817	402,13
686,22	468,85
686,623	419,43
687,026	407,08
687,429	500,97
687,832	441,67
688,235	412,02
688,638	471,32
689,04	439,2
689,443	416,96
689,845	407,08
690,248	466,38
690,65	446,61
691,053	456,49
691,455	444,14
691,857	439,2
692,26	404,61
692,662	414,49
693,064	374,96
693,466	439,2
693,868	471,32
694,27	473,79
694,671	434,26
695,073	409,55
695,475	431,79
695,877	426,84
696,278	409,55
696,68	360,13
697,081	416,96
697,483	372,48
697,884	439,2
698,285	416,96
698,686	456,49
699,087	454,02
699,489	412,02
699,89	431,79
700,291	370,01
700,691	374,96
701,092	370,01
701,493	392,25
701,894	397,19
702,294	397,19
702,695	414,49
703,096	431,79
703,496	387,31
703,896	478,73
704,297	365,07
704,697	389,78
705,097	421,9
705,497	419,43
705,897	461,44
706,297	449,08
706,697	392,25
707,097	372,48
707,497	426,84
707,897	416,96
708,297	416,96
708,696	397,19
709,096	496,03
709,495	483,67
709,895	429,31
710,294	458,96
710,694	468,85
711,093	444,14
711,492	424,37
711,891	377,43
712,29	431,79
712,689	387,31
713,088	434,26
713,487	424,37
713,886	419,43
714,285	436,73
714,684	409,55
715,082	449,08
715,481	429,31
715,879	451,55
716,278	404,61
716,676	416,96
717,075	426,84
717,473	461,44
717,871	392,25
718,269	419,43
718,667	444,14
719,065	414,49
719,463	357,66
719,861	446,61
720,259	377,43
720,657	404,61
721,054	404,61
721,452	458,96
721,85	429,31
722,247	454,02
722,645	473,79
723,042	399,66
723,439	426,84
723,837	431,79
724,234	493,56
724,631	409,55
725,028	377,43
725,425	434,26
725,822	416,96
726,219	444,14
726,616	426,84
727,012	384,84
727,409	434,26
727,806	444,14
728,202	414,49
728,599	370,01
728,995	478,73
729,392	419,43
729,788	429,31
730,184	434,26
730,58	436,73
730,977	481,2
731,373	407,08
731,769	402,13
732,165	419,43
732,56	384,84
732,956	426,84
733,352	454,02
733,748	416,96
734,143	412,02
734,539	374,96
734,934	449,08
735,33	488,62
735,725	419,43
736,12	461,44
736,516	379,9
736,911	402,13
737,306	407,08
737,701	446,61
738,096	407,08
738,491	500,97
738,886	367,54
739,28	444,14
739,675	409,55
740,07	370,01
740,464	397,19
740,859	449,08
741,253	478,73
741,648	407,08
742,042	407,08
742,437	389,78
742,831	357,66
743,225	412,02
743,619	384,84
744,013	370,01
744,407	416,96
744,801	370,01
745,195	382,37
745,588	379,9
745,982	397,19
746,376	394,72
746,769	436,73
747,163	456,49
747,556	412,02
747,95	429,31
748,343	379,9
748,736	424,37
749,13	449,08
749,523	352,72
749,916	451,55
750,309	481,2
750,702	434,26
751,095	461,44
751,487	441,67
751,88	397,19
752,273	416,96
752,665	374,96
753,058	367,54
753,45	436,73
753,843	399,66
754,235	404,61
754,627	434,26
755,02	454,02
755,412	414,49
755,804	372,48
756,196	345,3
756,588	404,61
756,98	454,02
757,372	414,49
757,764	332,95
758,155	498,5
758,547	374,96
758,938	429,31
759,33	493,56
759,721	382,37
760,113	441,67
760,504	449,08
760,895	387,31
761,287	404,61
761,678	421,9
762,069	392,25
762,46	397,19
762,851	409,55
763,242	399,66
763,632	456,49
764,023	323,07
764,414	444,14
764,804	431,79
765,195	382,37
765,586	404,61
765,976	471,32
766,366	473,79
766,757	397,19
767,147	402,13
767,537	419,43
767,927	397,19
768,317	463,91
768,707	429,31
769,097	397,19
769,487	436,73
769,877	404,61
770,266	419,43
770,656	367,54
771,045	488,62
771,435	320,6
771,824	468,85
772,214	382,37
772,603	389,78
772,992	407,08
773,382	357,66
773,771	461,44
774,16	451,55
774,549	412,02
774,938	454,02
775,327	439,2
775,715	421,9
776,104	446,61
776,493	382,37
776,881	394,72
777,27	461,44
777,658	491,09
778,047	498,5
778,435	436,73
778,823	434,26
779,212	412,02
779,6	476,26
779,988	500,97
780,376	444,14
780,764	449,08
781,152	451,55
781,539	473,79
781,927	456,49
782,315	449,08
782,702	535,56
783,09	486,14
783,477	483,67
783,865	468,85
784,252	431,79
784,64	409,55
785,027	389,78
785,414	493,56
785,801	515,8
786,188	451,55
786,575	515,8
786,962	367,54
787,349	394,72
787,736	350,25
788,122	382,37
788,509	424,37
788,895	374,96
789,282	414,49
789,668	372,48
790,055	441,67
790,441	444,14
790,827	449,08
791,213	449,08
791,6	372,48
791,986	426,84
792,372	384,84
792,757	416,96
793,143	407,08
793,529	431,79
793,915	384,84
794,3	394,72
794,686	468,85
795,072	439,2
795,457	421,9
795,842	355,19
796,228	454,02
796,613	367,54
796,998	412,02
797,383	397,19
797,768	384,84
798,153	374,96
798,538	444,14
798,923	441,67
799,308	528,15
799,692	439,2
800,077	473,79
800,462	434,26
800,846	476,26
801,231	456,49
801,615	481,2
801,999	533,09
802,384	508,38
802,768	528,15
803,152	449,08
803,536	416,96
803,92	572,63
804,304	545,45
804,688	476,26
805,072	555,33
805,455	503,44
805,839	607,22
806,223	538,03
806,606	622,04
806,99	607,22
807,373	562,74
807,756	555,33
808,139	624,51
808,523	582,51
808,906	634,4
809,289	562,74
809,672	577,57
810,055	592,39
810,438	488,62
810,82	513,32
811,203	538,03
811,586	515,8
811,968	552,86
812,351	535,56
812,733	602,28
813,116	540,5
813,498	498,5
813,88	547,92
814,263	542,97
814,645	582,51
815,027	550,39
815,409	491,09
815,791	555,33
816,172	607,22
816,554	523,21
816,936	619,57
817,318	609,69
817,699	646,75
818,081	535,56
818,462	636,87
818,844	713,46
819,225	693,7
819,606	713,46
819,987	622,04
820,368	639,34
820,749	730,76
821,13	795
821,511	809,83
821,892	829,6
822,273	832,07
822,654	849,36
823,034	871,6
823,415	874,07
823,795	859,25
824,176	874,07
824,556	893,84
824,937	829,6
825,317	832,07
825,697	854,3
826,077	901,25
826,457	901,25
826,837	943,26
827,217	839,48
827,597	916,08
827,977	967,97
828,356	982,79
828,736	1029,74
829,116	1101,39
829,495	1098,92
829,874	1145,87
830,254	1153,28
830,633	1284,24
831,012	1281,77
831,392	1299,06
831,771	1353,42
832,15	1390,48
832,529	1402,84
832,908	1489,32
833,286	1499,2
833,665	1640,04
834,044	1607,92
834,422	1536,27
834,801	1677,11
835,179	1538,74
835,558	1585,68
835,936	1523,91
836,314	1385,54
836,693	1425,08
837,071	1266,94
837,449	1227,41
837,827	1096,45
838,205	1042,09
838,583	972,91
838,961	795
839,338	799,95
839,716	715,94
840,094	728,29
840,471	580,04
840,849	505,91
841,226	503,44
841,603	461,44
841,981	500,97
842,358	481,2
842,735	468,85
843,112	542,97
843,489	550,39
843,866	461,44
844,243	515,8
844,62	565,21
844,996	582,51
845,373	550,39
845,749	629,46
846,126	528,15
846,502	740,64
846,879	671,46
847,255	792,53
847,631	713,46
848,008	748,06
848,384	775,24
848,76	869,13
849,136	770,3
849,512	780,18
849,887	757,94
850,263	772,77
850,639	691,23
851,014	636,87
851,39	641,81
851,765	599,8
852,141	577,57
852,516	498,5
852,892	505,91
853,267	533,09
853,642	505,91
854,017	535,56
854,392	555,33
854,767	661,58
855,142	651,69
855,517	770,3
855,891	804,89
856,266	879,01
856,641	948,2
857,015	1042,09
857,39	1086,57
857,764	1108,8
858,138	1155,75
858,513	1091,51
858,887	1084,1
859,261	1200,23
859,635	1051,97
860,009	1135,98
860,383	1113,75
860,757	1098,92
861,13	1029,74
861,504	1029,74
861,878	967,97
862,251	955,61
862,625	814,77
862,998	844,42
863,372	755,47
863,745	686,29
864,118	743,12
864,491	728,29
864,864	678,87
865,237	757,94
865,61	678,87
865,983	696,17
866,356	812,3
866,729	723,35
867,101	753
867,474	921,02
867,846	767,82
868,219	829,6
868,591	864,19
868,964	938,31
869,336	972,91
869,708	1029,74
870,08	1071,74
870,452	1089,04
870,824	1066,8
871,196	1148,34
871,568	1140,93
871,94	1182,93
872,311	1096,45
872,683	1140,93
873,055	1239,76
873,426	1227,41
873,797	1133,51
874,169	1131,04
874,54	1118,69
874,911	1059,39
875,282	1076,68
875,654	975,38
876,025	1039,62
876,395	923,49
876,766	829,6
877,137	879,01
877,508	851,83
877,878	869,13
878,249	703,58
878,62	710,99
878,99	626,98
879,36	631,93
879,731	641,81
880,101	572,63
880,471	577,57
880,841	500,97
881,211	458,96
881,581	508,38
881,951	528,15
882,321	510,85
882,691	451,55
883,06	496,03
883,43	496,03
883,799	545,45
884,169	520,74
884,538	416,96
884,908	473,79
885,277	508,38
885,646	513,32
886,015	520,74
886,384	508,38
886,753	567,68
887,122	496,03
887,491	567,68
887,86	649,22
888,228	634,4
888,597	644,28
888,966	661,58
889,334	733,23
889,703	708,52
890,071	715,94
890,439	765,35
890,807	765,35
891,176	740,64
891,544	743,12
891,912	693,7
892,28	703,58
892,647	639,34
893,015	676,4
893,383	646,75
893,751	577,57
894,118	641,81
894,486	530,62
894,853	614,63
895,22	545,45
895,588	500,97
895,955	538,03
896,322	540,5
896,689	533,09
897,056	523,21
897,423	540,5
897,79	624,51
898,157	565,21
898,523	612,16
898,89	538,03
899,257	723,35
899,623	651,69
899,99	710,99
900,356	765,35
900,722	822,18
901,089	839,48
901,455	849,36
901,821	874,07
902,187	832,07
902,553	1012,44
902,919	938,31
903,285	972,91
903,65	995,14
904,016	938,31
904,382	950,67
904,747	948,2
905,113	970,44
905,478	925,96
905,843	923,49
906,208	864,19
906,574	799,95
906,939	839,48
907,304	807,36
907,669	767,82
908,034	723,35
908,398	681,34
908,763	666,52
909,128	718,41
909,492	673,93
909,857	592,39
910,221	626,98
910,586	673,93
910,95	624,51
911,314	651,69
911,679	617,1
912,043	570,15
912,407	572,63
912,771	552,86
913,135	567,68
913,498	624,51
913,862	604,75
914,226	533,09
914,589	592,39
914,953	584,98
915,316	478,73
915,68	562,74
916,043	547,92
916,406	493,56
916,77	617,1
917,133	555,33
917,496	587,45
917,859	565,21
918,222	547,92
918,584	500,97
918,947	468,85
919,31	496,03
919,673	493,56
920,035	466,38
920,398	471,32
920,76	456,49
921,122	468,85
921,485	498,5
921,847	478,73
922,209	476,26
922,571	478,73
922,933	491,09
923,295	416,96
923,657	481,2
924,018	424,37
924,38	446,61
924,742	466,38
925,103	473,79
925,465	446,61
925,826	444,14
926,187	463,91
926,549	498,5
926,91	513,32
927,271	483,67
927,632	473,79
927,993	434,26
928,354	416,96
928,715	547,92
929,075	424,37
929,436	389,78
929,797	374,96
930,157	424,37
930,518	431,79
930,878	458,96
931,238	412,02
931,598	458,96
931,959	463,91
932,319	441,67
932,679	436,73
933,039	451,55
933,399	451,55
933,758	389,78
934,118	441,67
934,478	404,61
934,837	421,9
935,197	332,95
935,556	407,08
935,916	402,13
936,275	547,92
936,634	387,31
936,993	421,9
937,353	424,37
937,712	446,61
938,07	392,25
938,429	458,96
938,788	496,03
939,147	434,26
939,506	449,08
939,864	387,31
940,223	481,2
940,581	424,37
940,939	444,14
941,298	451,55
941,656	404,61
942,014	392,25
942,372	414,49
942,73	419,43
943,088	412,02
943,446	439,2
943,804	451,55
944,161	439,2
944,519	382,37
944,877	402,13
945,234	426,84
945,592	412,02
945,949	402,13
946,306	377,43
946,663	402,13
947,021	503,44
947,378	412,02
947,735	382,37
948,091	355,19
948,448	387,31
948,805	429,31
949,162	421,9
949,518	431,79
949,875	454,02
950,231	444,14
950,588	486,14
950,944	362,6
951,3	397,19
951,657	449,08
952,013	498,5
952,369	449,08
952,725	421,9
953,081	374,96
953,436	431,79
953,792	431,79
954,148	441,67
954,503	471,32
954,859	463,91
955,214	466,38
955,57	421,9
955,925	500,97
956,28	377,43
956,635	409,55
956,991	424,37
957,346	377,43
957,701	426,84
958,055	384,84
958,41	416,96
958,765	404,61
959,12	449,08
959,474	444,14
959,829	439,2
960,183	424,37
960,537	389,78
960,892	387,31
961,246	419,43
961,6	441,67
961,954	454,02
962,308	402,13
962,662	424,37
963,016	456,49
963,37	441,67
963,723	424,37
964,077	402,13
964,43	458,96
964,784	424,37
965,137	461,44
965,491	503,44
965,844	481,2
966,197	510,85
966,55	429,31
966,903	476,26
967,256	458,96
967,609	446,61
967,962	466,38
968,315	525,68
968,667	424,37
969,02	377,43
969,372	399,66
969,725	449,08
970,077	439,2
970,429	374,96
970,782	429,31
971,134	402,13
971,486	431,79
971,838	446,61
972,19	409,55
972,542	402,13
972,893	402,13
973,245	416,96
973,597	414,49
973,948	382,37
974,3	407,08
974,651	416,96
975,003	458,96
975,354	444,14
975,705	392,25
976,056	384,84
976,407	399,66
976,758	451,55
977,109	444,14
977,46	446,61
977,811	424,37
978,161	407,08
978,512	421,9
978,862	379,9
979,213	473,79
979,563	454,02
979,913	399,66
980,264	382,37
980,614	357,66
980,964	384,84
981,314	355,19
981,664	431,79
982,014	342,83
982,363	429,31
982,713	379,9
983,063	429,31
983,412	426,84
983,762	397,19
984,111	426,84
984,461	431,79
984,81	451,55
985,159	384,84
985,508	394,72
985,857	399,66
986,206	377,43
986,555	416,96
986,904	389,78
987,253	365,07
987,601	372,48
987,95	424,37
988,298	360,13
988,647	367,54
988,995	384,84
989,343	397,19
989,692	365,07
990,04	446,61
990,388	399,66
990,736	360,13
991,084	394,72
991,432	384,84
991,779	335,42
992,127	407,08
992,475	397,19
992,822	429,31
993,17	454,02
993,517	389,78
993,864	370,01
994,212	389,78
994,559	372,48
994,906	389,78
995,253	387,31
995,6	377,43
995,947	446,61
996,293	456,49
996,64	431,79
996,987	454,02
997,333	409,55
997,68	370,01
998,026	424,37
998,373	357,66
998,719	409,55
999,065	328,01
999,411	407,08
999,757	419,43
1000,103	419,43
1000,449	397,19
1000,795	389,78
1001,141	483,67
1001,486	362,6
1001,832	367,54
1002,177	310,71
1002,523	332,95
1002,868	374,96
1003,213	436,73
1003,559	414,49
1003,904	372,48
1004,249	416,96
1004,594	419,43
1004,939	365,07
1005,283	379,9
1005,628	352,72
1005,973	365,07
1006,318	362,6
1006,662	419,43
1007,007	362,6
1007,351	412,02
1007,695	355,19
1008,039	441,67
1008,384	332,95
1008,728	377,43
1009,072	407,08
1009,416	355,19
1009,759	357,66
1010,103	412,02
1010,447	360,13
1010,791	365,07
1011,134	365,07
1011,478	374,96
1011,821	382,37
1012,164	328,01
1012,508	394,72
1012,851	355,19
1013,194	389,78
1013,537	382,37
1013,88	389,78
1014,223	360,13
1014,565	434,26
1014,908	451,55
1015,251	357,66
1015,593	362,6
1015,936	451,55
1016,278	419,43
1016,621	377,43
1016,963	355,19
1017,305	412,02
1017,647	426,84
1017,989	397,19
1018,331	389,78
1018,673	414,49
1019,015	357,66
1019,356	454,02
1019,698	340,36
1020,04	352,72
1020,381	424,37
1020,723	424,37
1021,064	384,84
1021,405	407,08
1021,746	313,18
1022,088	424,37
1022,429	379,9
1022,77	384,84
1023,11	434,26
1023,451	323,07
1023,792	323,07
1024,133	323,07
