Data from FLMS187131_14-23-45-269.txt Node
Date: Mon Dec 23 14:23:45 MSK 2024
User: FemtoLab1
Spectrometer: FLMS18713
Trigger mode: 0
Integration Time (sec): 1,200000E-1
Scans to average: 1
Electric dark correction enabled: true
Nonlinearity correction enabled: false
Boxcar width: 0
XAxis mode: Wavelengths
Number of Pixels in Spectrum: 2048
>>>>>Begin Spectral Data<<<<<
190,252	-43,86
190,715	-43,86
191,177	-43,86
191,64	-162,46
192,102	-108,1
192,565	-95,75
193,027	-24,09
193,49	-147,63
193,952	-110,57
194,415	-58,68
194,877	-66,1
195,339	-6,79
195,802	-29,03
196,264	-29,03
196,726	35,21
197,188	32,74
197,65	42,62
198,112	84,63
198,574	94,51
199,036	141,46
199,498	136,52
199,96	161,22
200,421	215,58
200,883	176,05
201,345	245,23
201,807	277,36
202,268	314,42
202,73	311,95
203,191	307,01
203,653	326,77
204,114	311,95
204,576	361,37
205,037	329,24
205,498	321,83
205,96	376,19
206,421	408,31
206,882	363,84
207,343	398,43
207,804	408,31
208,265	425,61
208,726	462,67
209,187	455,26
209,648	388,54
210,109	373,72
210,57	470,08
211,031	386,07
211,492	391,02
211,952	363,84
212,413	376,19
212,874	398,43
213,334	326,77
213,795	472,55
214,255	376,19
214,716	361,37
215,176	428,08
215,636	356,42
216,097	420,67
216,557	405,84
217,017	368,78
217,477	368,78
217,938	415,72
218,398	433,02
218,858	420,67
219,318	329,24
219,778	428,08
220,238	386,07
220,698	292,18
221,157	408,31
221,617	339,13
222,077	398,43
222,537	336,66
222,996	294,65
223,456	423,14
223,915	413,25
224,375	418,2
224,834	361,37
225,294	371,25
225,753	326,77
226,213	415,72
226,672	388,54
227,131	398,43
227,59	334,19
228,05	336,66
228,509	391,02
228,968	393,49
229,427	378,66
229,886	331,71
230,345	341,6
230,804	373,72
231,263	277,36
231,721	339,13
232,18	334,19
232,639	368,78
233,098	400,9
233,556	371,25
234,015	324,3
234,473	371,25
234,932	457,73
235,39	368,78
235,849	388,54
236,307	400,9
236,765	334,19
237,224	378,66
237,682	373,72
238,14	349,01
238,598	353,95
239,056	356,42
239,514	339,13
239,972	395,96
240,43	339,13
240,888	381,13
241,346	400,9
241,804	344,07
242,262	356,42
242,72	378,66
243,177	334,19
243,635	388,54
244,093	371,25
244,55	346,54
245,008	334,19
245,465	361,37
245,923	373,72
246,38	344,07
246,837	400,9
247,295	366,31
247,752	408,31
248,209	400,9
248,666	381,13
249,123	373,72
249,58	405,84
250,037	413,25
250,494	388,54
250,951	423,14
251,408	371,25
251,865	391,02
252,322	371,25
252,779	363,84
253,235	405,84
253,692	378,66
254,149	462,67
254,605	413,25
255,062	361,37
255,518	395,96
255,975	423,14
256,431	346,54
256,887	346,54
257,344	344,07
257,8	400,9
258,256	445,38
258,712	400,9
259,168	361,37
259,625	400,9
260,081	329,24
260,537	470,08
260,992	413,25
261,448	447,85
261,904	502,21
262,36	329,24
262,816	408,31
263,272	400,9
263,727	433,02
264,183	346,54
264,638	442,9
265,094	433,02
265,549	442,9
266,005	425,61
266,46	440,43
266,916	405,84
267,371	455,26
267,826	420,67
268,281	395,96
268,737	378,66
269,192	395,96
269,647	440,43
270,102	393,49
270,557	435,49
271,012	398,43
271,467	415,72
271,921	428,08
272,376	391,02
272,831	366,31
273,286	428,08
273,74	410,78
274,195	398,43
274,649	408,31
275,104	445,38
275,558	423,14
276,013	344,07
276,467	428,08
276,922	393,49
277,376	425,61
277,83	356,42
278,284	376,19
278,739	428,08
279,193	391,02
279,647	420,67
280,101	371,25
280,555	386,07
281,009	423,14
281,462	413,25
281,916	457,73
282,37	423,14
282,824	425,61
283,278	366,31
283,731	435,49
284,185	428,08
284,638	376,19
285,092	410,78
285,545	420,67
285,999	440,43
286,452	378,66
286,905	405,84
287,359	334,19
287,812	428,08
288,265	373,72
288,718	477,5
289,171	470,08
289,624	381,13
290,077	433,02
290,53	420,67
290,983	408,31
291,436	368,78
291,889	398,43
292,342	445,38
292,794	452,79
293,247	428,08
293,7	373,72
294,152	388,54
294,605	455,26
295,057	381,13
295,51	393,49
295,962	430,55
296,414	393,49
296,867	381,13
297,319	358,89
297,771	415,72
298,223	373,72
298,675	410,78
299,128	363,84
299,58	408,31
300,032	450,32
300,483	356,42
300,935	423,14
301,387	440,43
301,839	363,84
302,291	408,31
302,742	420,67
303,194	405,84
303,646	413,25
304,097	400,9
304,549	428,08
305	279,83
305,451	410,78
305,903	391,02
306,354	418,2
306,805	447,85
307,257	413,25
307,708	403,37
308,159	388,54
308,61	383,6
309,061	462,67
309,512	499,73
309,963	435,49
310,414	383,6
310,865	430,55
311,315	346,54
311,766	403,37
312,217	410,78
312,668	435,49
313,118	393,49
313,569	460,2
314,019	386,07
314,47	437,96
314,92	371,25
315,37	455,26
315,821	462,67
316,271	425,61
316,721	462,67
317,171	418,2
317,622	450,32
318,072	425,61
318,522	395,96
318,972	455,26
319,422	433,02
319,872	452,79
320,321	455,26
320,771	415,72
321,221	395,96
321,671	376,19
322,12	425,61
322,57	445,38
323,019	455,26
323,469	415,72
323,918	445,38
324,368	450,32
324,817	366,31
325,267	425,61
325,716	400,9
326,165	371,25
326,614	472,55
327,063	479,97
327,512	450,32
327,961	403,37
328,41	467,61
328,859	450,32
329,308	393,49
329,757	363,84
330,206	435,49
330,655	334,19
331,103	413,25
331,552	415,72
332,001	475,03
332,449	425,61
332,898	465,14
333,346	455,26
333,794	415,72
334,243	381,13
334,691	455,26
335,139	435,49
335,588	395,96
336,036	361,37
336,484	403,37
336,932	405,84
337,38	405,84
337,828	405,84
338,276	383,6
338,724	376,19
339,172	435,49
339,619	341,6
340,067	391,02
340,515	405,84
340,962	415,72
341,41	514,56
341,858	442,9
342,305	383,6
342,753	435,49
343,2	484,91
343,647	395,96
344,095	450,32
344,542	395,96
344,989	425,61
345,436	410,78
345,883	371,25
346,33	442,9
346,777	425,61
347,224	410,78
347,671	442,9
348,118	472,55
348,565	425,61
349,012	425,61
349,458	388,54
349,905	420,67
350,352	445,38
350,798	410,78
351,245	361,37
351,691	413,25
352,138	472,55
352,584	435,49
353,03	383,6
353,477	452,79
353,923	460,2
354,369	356,42
354,815	395,96
355,261	494,79
355,707	410,78
356,153	393,49
356,599	440,43
357,045	405,84
357,491	405,84
357,937	383,6
358,382	371,25
358,828	452,79
359,274	410,78
359,719	420,67
360,165	445,38
360,61	383,6
361,056	435,49
361,501	452,79
361,947	437,96
362,392	410,78
362,837	405,84
363,282	465,14
363,727	440,43
364,173	393,49
364,618	423,14
365,063	450,32
365,508	371,25
365,952	452,79
366,397	509,62
366,842	489,85
367,287	433,02
367,732	437,96
368,176	410,78
368,621	442,9
369,065	398,43
369,51	465,14
369,954	442,9
370,399	447,85
370,843	460,2
371,287	433,02
371,732	400,9
372,176	479,97
372,62	413,25
373,064	408,31
373,508	395,96
373,952	452,79
374,396	442,9
374,84	395,96
375,284	467,61
375,728	425,61
376,172	386,07
376,615	425,61
377,059	435,49
377,503	433,02
377,946	405,84
378,39	415,72
378,833	425,61
379,277	440,43
379,72	425,61
380,163	475,03
380,607	361,37
381,05	405,84
381,493	423,14
381,936	425,61
382,379	435,49
382,822	413,25
383,265	430,55
383,708	415,72
384,151	410,78
384,594	415,72
385,037	410,78
385,479	403,37
385,922	425,61
386,365	398,43
386,807	386,07
387,25	452,79
387,692	405,84
388,135	415,72
388,577	413,25
389,019	400,9
389,461	435,49
389,904	356,42
390,346	415,72
390,788	425,61
391,23	472,55
391,672	381,13
392,114	386,07
392,556	425,61
392,998	420,67
393,44	376,19
393,881	477,5
394,323	450,32
394,765	440,43
395,206	437,96
395,648	435,49
396,09	383,6
396,531	383,6
396,972	413,25
397,414	398,43
397,855	366,31
398,296	415,72
398,738	460,2
399,179	405,84
399,62	423,14
400,061	430,55
400,502	415,72
400,943	472,55
401,384	381,13
401,825	445,38
402,265	472,55
402,706	366,31
403,147	445,38
403,588	428,08
404,028	425,61
404,469	410,78
404,909	316,89
405,35	420,67
405,79	408,31
406,23	391,02
406,671	462,67
407,111	420,67
407,551	442,9
407,991	393,49
408,431	433,02
408,871	405,84
409,311	373,72
409,751	484,91
410,191	395,96
410,631	405,84
411,071	435,49
411,511	366,31
411,95	405,84
412,39	450,32
412,83	465,14
413,269	440,43
413,709	395,96
414,148	371,25
414,587	408,31
415,027	460,2
415,466	423,14
415,905	381,13
416,345	368,78
416,784	423,14
417,223	428,08
417,662	455,26
418,101	398,43
418,54	433,02
418,979	484,91
419,417	413,25
419,856	455,26
420,295	423,14
420,734	435,49
421,172	425,61
421,611	445,38
422,049	440,43
422,488	425,61
422,926	400,9
423,364	391,02
423,803	450,32
424,241	433,02
424,679	470,08
425,117	457,73
425,555	472,55
425,994	482,44
426,432	415,72
426,87	482,44
427,307	477,5
427,745	430,55
428,183	509,62
428,621	425,61
429,058	450,32
429,496	462,67
429,934	403,37
430,371	442,9
430,809	475,03
431,246	472,55
431,684	460,2
432,121	465,14
432,558	460,2
432,995	435,49
433,433	479,97
433,87	536,8
434,307	514,56
434,744	531,86
435,181	524,44
435,618	556,56
436,055	675,17
436,491	534,33
436,928	519,5
437,365	559,04
437,801	487,38
438,238	526,91
438,675	544,21
439,111	556,56
439,548	591,16
439,984	517,03
440,42	541,74
440,857	534,33
441,293	467,61
441,729	554,09
442,165	566,45
442,601	598,57
443,037	539,27
443,473	620,81
443,909	563,98
444,345	605,98
444,781	596,1
445,217	536,8
445,652	578,8
446,088	603,51
446,524	620,81
446,959	581,27
447,395	596,1
447,83	620,81
448,266	657,87
448,701	603,51
449,136	539,27
449,572	566,45
450,007	578,8
450,442	571,39
450,877	652,93
451,312	551,62
451,747	586,21
452,182	630,69
452,617	598,57
453,052	618,34
453,486	549,15
453,921	650,46
454,356	647,99
454,79	586,21
455,225	650,46
455,66	566,45
456,094	638,1
456,528	526,91
456,963	586,21
457,397	554,09
457,831	625,75
458,265	605,98
458,7	566,45
459,134	512,09
459,568	568,92
460,002	576,33
460,436	526,91
460,87	507,15
461,303	519,5
461,737	482,44
462,171	536,8
462,605	551,62
463,038	507,15
463,472	586,21
463,905	465,14
464,339	581,27
464,772	554,09
465,205	512,09
465,639	531,86
466,072	509,62
466,505	475,03
466,938	549,15
467,371	475,03
467,804	563,98
468,237	546,68
468,67	489,85
469,103	502,21
469,536	554,09
469,969	460,2
470,402	452,79
470,834	551,62
471,267	568,92
471,699	465,14
472,132	517,03
472,564	568,92
472,997	544,21
473,429	512,09
473,861	489,85
474,294	477,5
474,726	413,25
475,158	475,03
475,59	470,08
476,022	541,74
476,454	546,68
476,886	499,73
477,318	554,09
477,75	492,32
478,181	450,32
478,613	541,74
479,045	447,85
479,476	524,44
479,908	484,91
480,339	482,44
480,771	484,91
481,202	452,79
481,634	470,08
482,065	504,68
482,496	554,09
482,927	519,5
483,358	494,79
483,789	556,56
484,22	475,03
484,651	539,27
485,082	610,92
485,513	573,86
485,944	526,91
486,375	563,98
486,805	502,21
487,236	509,62
487,667	465,14
488,097	571,39
488,527	489,85
488,958	460,2
489,388	541,74
489,819	519,5
490,249	524,44
490,679	571,39
491,109	586,21
491,539	524,44
491,969	541,74
492,399	563,98
492,829	544,21
493,259	605,98
493,689	568,92
494,119	588,69
494,548	618,34
494,978	623,28
495,408	620,81
495,837	680,11
496,267	610,92
496,696	650,46
497,126	643,05
497,555	722,11
497,984	643,05
498,413	608,45
498,843	672,7
499,272	662,81
499,701	667,75
500,13	643,05
500,559	689,99
500,988	623,28
501,417	722,11
501,845	783,88
502,274	781,41
502,703	825,89
503,131	964,26
503,56	1033,44
503,988	1016,15
504,417	1181,7
504,845	1189,11
505,274	1327,48
505,702	1411,49
506,13	1522,68
506,558	1579,51
506,987	1707,99
507,415	1964,96
507,843	2278,76
508,271	2807,53
508,699	3519,14
509,126	4290,06
509,554	5288,29
509,982	6422,42
510,41	7655,39
510,837	8638,79
511,265	9375,11
511,693	10160,85
512,12	10432,65
512,547	10790,93
512,975	10897,17
513,402	11033,07
513,829	11465,47
514,257	12421,7
514,684	13555,83
515,111	15460,88
515,538	18020,7
515,965	20899,27
516,392	24907,03
516,819	27928,91
517,246	31867,48
517,672	35183,4
518,099	37871,71
518,526	40419,18
518,952	41234,57
519,379	41024,54
519,805	40290,69
520,232	38635,21
520,658	36720,28
521,085	35200,69
521,511	33125,16
521,937	31659,93
522,363	31049,62
522,789	30281,18
523,215	31378,25
523,641	32341,89
524,067	34115,98
524,493	35890,07
524,919	37730,87
525,345	40107,85
525,771	40624,26
526,196	41447,06
526,622	41706,51
527,047	41785,57
527,473	40206,68
527,898	38464,72
528,324	36003,73
528,749	33624,28
529,174	30995,27
529,6	27881,96
530,025	25613,7
530,45	22712,89
530,875	20454,52
531,3	18423,46
531,725	16130,49
532,15	14640,55
532,575	12972,71
532,999	11423,47
533,424	10032,37
533,849	8574,55
534,273	7470,07
534,698	6204,98
535,122	5377,24
535,547	4467,96
535,971	3783,53
536,396	3099,09
536,82	2693,87
537,244	2323,24
537,668	2135,45
538,092	1908,13
538,517	1747,53
538,941	1777,18
539,364	1596,8
539,788	1641,28
540,212	1636,34
540,636	1577,04
541,06	1522,68
541,483	1441,14
541,907	1646,22
542,331	1490,55
542,754	1475,73
543,178	1433,72
543,601	1433,72
544,024	1431,25
544,448	1270,65
544,871	1302,77
545,294	1384,31
545,717	1418,9
546,14	1616,57
546,563	1579,51
546,986	1507,85
547,409	1458,43
547,832	1342,3
548,255	1342,3
548,677	1181,7
549,1	1154,52
549,522	1030,97
549,945	1166,87
550,368	1107,57
550,79	1100,16
551,212	1008,73
551,635	1006,26
552,057	1023,56
552,479	1092,74
552,901	1045,8
553,323	1053,21
553,745	1043,33
554,167	996,38
554,589	1065,56
555,011	1068,04
555,433	1080,39
555,855	1006,26
556,277	1028,5
556,698	1077,92
557,12	1087,8
557,541	1050,74
557,963	1097,69
558,384	1107,57
558,806	1082,86
559,227	1013,68
559,648	1114,98
560,069	1058,15
560,49	969,2
560,912	1065,56
561,333	1035,91
561,754	1043,33
562,174	1068,04
562,595	1107,57
563,016	1048,27
563,437	1077,92
563,858	951,9
564,278	1072,98
564,699	1023,56
565,119	969,2
565,54	1018,62
565,96	1021,09
566,38	1055,68
566,801	1040,86
567,221	1008,73
567,641	979,08
568,061	1065,56
568,481	1033,44
568,901	966,73
569,321	1003,79
569,741	1033,44
570,161	1087,8
570,581	1105,1
571,001	954,38
571,42	1085,33
571,84	956,85
572,259	1013,68
572,679	1087,8
573,098	1060,62
573,518	1072,98
573,937	1142,16
574,356	951,9
574,775	1132,28
575,195	1016,15
575,614	1095,22
576,033	1110,04
576,452	1090,27
576,871	1144,63
577,29	1082,86
577,708	1082,86
578,127	1114,98
578,546	1080,39
578,964	1127,34
579,383	1114,98
579,801	1169,34
580,22	1077,92
580,638	1114,98
581,057	1087,8
581,475	1087,8
581,893	1095,22
582,311	1072,98
582,73	979,08
583,148	993,91
583,566	1384,31
583,984	1058,15
584,401	971,67
584,819	954,38
585,237	1006,26
585,655	944,49
586,072	1068,04
586,49	986,5
586,908	1065,56
587,325	959,32
587,742	1016,15
588,16	1152,05
588,577	1058,15
588,994	1018,62
589,412	1048,27
589,829	1058,15
590,246	1060,62
590,663	979,08
591,08	1028,5
591,497	1043,33
591,914	979,08
592,33	981,55
592,747	1003,79
593,164	949,43
593,58	956,85
593,997	954,38
594,413	976,61
594,83	1006,26
595,246	1053,21
595,663	1028,5
596,079	971,67
596,495	998,85
596,911	969,2
597,327	1011,21
597,743	1028,5
598,159	956,85
598,575	1023,56
598,991	919,78
599,407	1070,51
599,823	979,08
600,238	1077,92
600,654	946,96
601,07	949,43
601,485	951,9
601,901	1028,5
602,316	959,32
602,731	944,49
603,147	969,2
603,562	966,73
603,977	959,32
604,392	900,02
604,807	927,2
605,222	914,84
605,637	1043,33
606,052	870,37
606,467	929,67
606,882	880,25
607,296	858,01
607,711	927,2
608,125	811,06
608,54	835,77
608,954	845,66
609,369	880,25
609,783	855,54
610,197	840,71
610,612	872,84
611,026	828,36
611,44	811,06
611,854	778,94
612,268	870,37
612,682	818,48
613,096	746,82
613,51	741,88
613,923	811,06
614,337	786,36
614,751	717,17
615,164	867,89
615,578	786,36
615,991	786,36
616,405	689,99
616,818	709,76
617,231	801,18
617,645	744,35
618,058	685,05
618,471	712,23
618,884	692,46
619,297	707,29
619,71	694,93
620,123	774
620,536	682,58
620,948	677,64
621,361	630,69
621,774	640,57
622,186	625,75
622,599	702,35
623,011	670,22
623,424	652,93
623,836	697,4
624,248	610,92
624,661	682,58
625,073	633,16
625,485	682,58
625,897	655,4
626,309	697,4
626,721	687,52
627,133	618,34
627,545	652,93
627,956	675,17
628,368	670,22
628,78	685,05
629,191	665,28
629,603	638,1
630,014	680,11
630,426	647,99
630,837	660,34
631,248	689,99
631,66	680,11
632,071	593,63
632,482	675,17
632,893	598,57
633,304	593,63
633,715	643,05
634,126	578,8
634,536	610,92
634,947	615,87
635,358	667,75
635,769	677,64
636,179	640,57
636,59	618,34
637	640,57
637,41	655,4
637,821	566,45
638,231	613,39
638,641	546,68
639,051	598,57
639,462	551,62
639,872	586,21
640,282	544,21
640,691	605,98
641,101	591,16
641,511	549,15
641,921	536,8
642,331	613,39
642,74	655,4
643,15	544,21
643,559	581,27
643,969	536,8
644,378	573,86
644,787	605,98
645,197	539,27
645,606	563,98
646,015	586,21
646,424	608,45
646,833	531,86
647,242	512,09
647,651	534,33
648,06	492,32
648,469	581,27
648,877	514,56
649,286	489,85
649,694	568,92
650,103	578,8
650,512	450,32
650,92	534,33
651,328	591,16
651,737	462,67
652,145	517,03
652,553	521,97
652,961	573,86
653,369	475,03
653,777	499,73
654,185	551,62
654,593	524,44
655,001	514,56
655,409	554,09
655,816	492,32
656,224	489,85
656,631	479,97
657,039	504,68
657,446	475,03
657,854	534,33
658,261	536,8
658,668	467,61
659,076	539,27
659,483	484,91
659,89	489,85
660,297	447,85
660,704	477,5
661,111	507,15
661,518	455,26
661,924	462,67
662,331	526,91
662,738	546,68
663,144	521,97
663,551	504,68
663,957	479,97
664,364	521,97
664,77	462,67
665,177	440,43
665,583	519,5
665,989	452,79
666,395	529,38
666,801	470,08
667,207	418,2
667,613	437,96
668,019	470,08
668,425	408,31
668,83	472,55
669,236	482,44
669,642	447,85
670,047	482,44
670,453	457,73
670,858	420,67
671,264	475,03
671,669	487,38
672,074	425,61
672,48	467,61
672,885	482,44
673,29	455,26
673,695	452,79
674,1	494,79
674,505	447,85
674,909	445,38
675,314	455,26
675,719	484,91
676,124	499,73
676,528	492,32
676,933	395,96
677,337	445,38
677,742	420,67
678,146	418,2
678,55	405,84
678,955	484,91
679,359	539,27
679,763	462,67
680,167	383,6
680,571	376,19
680,975	440,43
681,379	447,85
681,782	430,55
682,186	415,72
682,59	381,13
682,993	482,44
683,397	467,61
683,8	393,49
684,204	415,72
684,607	418,2
685,011	450,32
685,414	423,14
685,817	435,49
686,22	400,9
686,623	457,73
687,026	418,2
687,429	425,61
687,832	470,08
688,235	462,67
688,638	472,55
689,04	462,67
689,443	381,13
689,845	437,96
690,248	430,55
690,65	430,55
691,053	430,55
691,455	393,49
691,857	437,96
692,26	408,31
692,662	408,31
693,064	403,37
693,466	455,26
693,868	437,96
694,27	433,02
694,671	418,2
695,073	435,49
695,475	440,43
695,877	388,54
696,278	430,55
696,68	433,02
697,081	509,62
697,483	452,79
697,884	418,2
698,285	447,85
698,686	450,32
699,087	428,08
699,489	395,96
699,89	413,25
700,291	428,08
700,691	452,79
701,092	363,84
701,493	410,78
701,894	381,13
702,294	398,43
702,695	455,26
703,096	395,96
703,496	388,54
703,896	368,78
704,297	378,66
704,697	405,84
705,097	450,32
705,497	418,2
705,897	413,25
706,297	368,78
706,697	410,78
707,097	353,95
707,497	428,08
707,897	386,07
708,297	398,43
708,696	457,73
709,096	395,96
709,495	452,79
709,895	395,96
710,294	452,79
710,694	418,2
711,093	410,78
711,492	460,2
711,891	410,78
712,29	475,03
712,689	418,2
713,088	378,66
713,487	368,78
713,886	433,02
714,285	425,61
714,684	442,9
715,082	442,9
715,481	423,14
715,879	475,03
716,278	386,07
716,676	450,32
717,075	440,43
717,473	475,03
717,871	376,19
718,269	381,13
718,667	408,31
719,065	403,37
719,463	410,78
719,861	341,6
720,259	408,31
720,657	334,19
721,054	460,2
721,452	442,9
721,85	373,72
722,247	408,31
722,645	400,9
723,042	349,01
723,439	400,9
723,837	405,84
724,234	363,84
724,631	413,25
725,028	413,25
725,425	368,78
725,822	420,67
726,219	376,19
726,616	400,9
727,012	395,96
727,409	437,96
727,806	482,44
728,202	395,96
728,599	413,25
728,995	420,67
729,392	388,54
729,788	435,49
730,184	470,08
730,58	435,49
730,977	452,79
731,373	418,2
731,769	371,25
732,165	413,25
732,56	470,08
732,956	420,67
733,352	437,96
733,748	373,72
734,143	361,37
734,539	447,85
734,934	442,9
735,33	393,49
735,725	410,78
736,12	477,5
736,516	368,78
736,911	435,49
737,306	430,55
737,701	368,78
738,096	388,54
738,491	353,95
738,886	455,26
739,28	398,43
739,675	314,42
740,07	403,37
740,464	420,67
740,859	346,54
741,253	413,25
741,648	405,84
742,042	381,13
742,437	349,01
742,831	455,26
743,225	376,19
743,619	475,03
744,013	447,85
744,407	393,49
744,801	400,9
745,195	371,25
745,588	499,73
745,982	383,6
746,376	405,84
746,769	398,43
747,163	378,66
747,556	447,85
747,95	376,19
748,343	405,84
748,736	433,02
749,13	383,6
749,523	462,67
749,916	376,19
750,309	430,55
750,702	440,43
751,095	470,08
751,487	405,84
751,88	410,78
752,273	467,61
752,665	378,66
753,058	403,37
753,45	470,08
753,843	353,95
754,235	398,43
754,627	388,54
755,02	410,78
755,412	413,25
755,804	381,13
756,196	388,54
756,588	418,2
756,98	388,54
757,372	479,97
757,764	433,02
758,155	423,14
758,547	452,79
758,938	428,08
759,33	437,96
759,721	440,43
760,113	410,78
760,504	386,07
760,895	353,95
761,287	418,2
761,678	408,31
762,069	413,25
762,46	430,55
762,851	351,48
763,242	502,21
763,632	398,43
764,023	400,9
764,414	423,14
764,804	462,67
765,195	440,43
765,586	363,84
765,976	383,6
766,366	371,25
766,757	400,9
767,147	418,2
767,537	391,02
767,927	361,37
768,317	418,2
768,707	482,44
769,097	349,01
769,487	457,73
769,877	452,79
770,266	398,43
770,656	366,31
771,045	433,02
771,435	423,14
771,824	386,07
772,214	413,25
772,603	386,07
772,992	445,38
773,382	391,02
773,771	514,56
774,16	484,91
774,549	405,84
774,938	405,84
775,327	447,85
775,715	420,67
776,104	376,19
776,493	445,38
776,881	386,07
777,27	408,31
777,658	363,84
778,047	445,38
778,435	455,26
778,823	415,72
779,212	428,08
779,6	356,42
779,988	440,43
780,376	366,31
780,764	435,49
781,152	373,72
781,539	376,19
781,927	398,43
782,315	376,19
782,702	405,84
783,09	430,55
783,477	376,19
783,865	418,2
784,252	391,02
784,64	435,49
785,027	398,43
785,414	410,78
785,801	467,61
786,188	363,84
786,575	395,96
786,962	408,31
787,349	403,37
787,736	358,89
788,122	395,96
788,509	391,02
788,895	398,43
789,282	395,96
789,668	408,31
790,055	425,61
790,441	388,54
790,827	423,14
791,213	405,84
791,6	393,49
791,986	415,72
792,372	378,66
792,757	435,49
793,143	386,07
793,529	405,84
793,915	395,96
794,3	358,89
794,686	410,78
795,072	410,78
795,457	425,61
795,842	395,96
796,228	428,08
796,613	388,54
796,998	437,96
797,383	366,31
797,768	405,84
798,153	383,6
798,538	428,08
798,923	408,31
799,308	430,55
799,692	366,31
800,077	391,02
800,462	373,72
800,846	358,89
801,231	383,6
801,615	405,84
801,999	418,2
802,384	346,54
802,768	447,85
803,152	420,67
803,536	381,13
803,92	408,31
804,304	420,67
804,688	393,49
805,072	398,43
805,455	437,96
805,839	477,5
806,223	437,96
806,606	410,78
806,99	418,2
807,373	457,73
807,756	378,66
808,139	408,31
808,523	433,02
808,906	329,24
809,289	398,43
809,672	428,08
810,055	442,9
810,438	366,31
810,82	363,84
811,203	418,2
811,586	393,49
811,968	489,85
812,351	435,49
812,733	435,49
813,116	447,85
813,498	465,14
813,88	442,9
814,263	539,27
814,645	435,49
815,027	452,79
815,409	435,49
815,791	415,72
816,172	433,02
816,554	435,49
816,936	479,97
817,318	415,72
817,699	415,72
818,081	430,55
818,462	470,08
818,844	388,54
819,225	400,9
819,606	371,25
819,987	482,44
820,368	398,43
820,749	447,85
821,13	462,67
821,511	442,9
821,892	356,42
822,273	442,9
822,654	413,25
823,034	366,31
823,415	504,68
823,795	450,32
824,176	386,07
824,556	445,38
824,937	415,72
825,317	440,43
825,697	403,37
826,077	455,26
826,457	425,61
826,837	391,02
827,217	418,2
827,597	395,96
827,977	395,96
828,356	430,55
828,736	452,79
829,116	344,07
829,495	494,79
829,874	450,32
830,254	437,96
830,633	465,14
831,012	425,61
831,392	455,26
831,771	452,79
832,15	467,61
832,529	455,26
832,908	465,14
833,286	519,5
833,665	450,32
834,044	462,67
834,422	415,72
834,801	430,55
835,179	437,96
835,558	349,01
835,936	435,49
836,314	440,43
836,693	393,49
837,071	363,84
837,449	433,02
837,827	430,55
838,205	437,96
838,583	420,67
838,961	484,91
839,338	420,67
839,716	477,5
840,094	462,67
840,471	428,08
840,849	405,84
841,226	433,02
841,603	452,79
841,981	381,13
842,358	373,72
842,735	450,32
843,112	435,49
843,489	479,97
843,866	447,85
844,243	440,43
844,62	433,02
844,996	420,67
845,373	433,02
845,749	428,08
846,126	388,54
846,502	410,78
846,879	447,85
847,255	410,78
847,631	383,6
848,008	423,14
848,384	433,02
848,76	442,9
849,136	418,2
849,512	395,96
849,887	381,13
850,263	371,25
850,639	445,38
851,014	428,08
851,39	440,43
851,765	378,66
852,141	413,25
852,516	430,55
852,892	358,89
853,267	413,25
853,642	398,43
854,017	440,43
854,392	442,9
854,767	428,08
855,142	484,91
855,517	492,32
855,891	477,5
856,266	489,85
856,641	467,61
857,015	484,91
857,39	549,15
857,764	502,21
858,138	497,26
858,513	462,67
858,887	524,44
859,261	561,51
859,635	544,21
860,009	605,98
860,383	657,87
860,757	732
861,13	672,7
861,504	613,39
861,878	719,64
862,251	769,06
862,625	751,76
862,998	870,37
863,372	855,54
863,745	811,06
864,118	969,2
864,491	924,72
864,864	954,38
865,237	1011,21
865,61	900,02
865,983	1023,56
866,356	1050,74
866,729	1011,21
867,101	956,85
867,474	1003,79
867,846	1016,15
868,219	1021,09
868,591	1060,62
868,964	949,43
869,336	991,44
869,708	984,03
870,08	907,43
870,452	946,96
870,824	890,13
871,196	808,59
871,568	853,07
871,94	801,18
872,311	751,76
872,683	712,23
873,055	667,75
873,426	724,58
873,797	677,64
874,169	692,46
874,54	781,41
874,911	774
875,282	961,79
875,654	917,31
876,025	984,03
876,395	1171,81
876,766	1263,23
877,137	1431,25
877,508	1532,56
877,878	1698,11
878,249	1806,83
878,62	2011,91
878,99	2110,74
879,36	2234,29
879,731	2515,97
880,101	2609,86
880,471	2795,18
880,841	2958,25
881,211	3049,68
881,581	3136,16
881,951	3316,53
882,321	3336,3
882,691	3304,18
883,06	3427,72
883,43	3363,48
883,799	3398,07
884,169	3447,49
884,538	3398,07
884,908	3222,64
885,277	3106,51
885,646	3000,26
886,015	2866,83
886,384	2649,4
886,753	2733,4
887,122	2641,98
887,491	2449,25
887,86	2431,96
888,228	2367,72
888,597	2320,77
888,966	2330,65
889,334	2367,72
889,703	2476,43
890,071	2439,37
890,439	2471,49
890,807	2718,58
891,176	2651,87
891,544	2795,18
891,912	2921,19
892,28	2985,43
892,647	2960,73
893,015	2933,55
893,383	2852,01
893,751	2908,84
894,118	2807,53
894,486	2671,63
894,853	2688,93
895,22	2602,45
895,588	2488,79
895,955	2268,88
896,322	2103,33
896,689	2016,85
897,056	1994,61
897,423	1888,37
897,79	1782,12
898,157	1631,39
898,523	1586,92
898,89	1517,73
899,257	1359,6
899,623	1302,77
899,99	1270,65
900,356	1258,29
900,722	1070,51
901,089	1001,32
901,455	1112,51
901,821	1016,15
902,187	976,61
902,553	917,31
902,919	892,6
903,285	902,49
903,65	825,89
904,016	825,89
904,382	776,47
904,747	788,83
905,113	704,82
905,478	759,18
905,843	774
906,208	680,11
906,574	756,71
906,939	670,22
907,304	835,77
907,669	714,7
908,034	741,88
908,398	858,01
908,763	924,72
909,128	927,2
909,492	1055,68
909,857	1092,74
910,221	1122,39
910,586	1198,99
910,95	1270,65
911,314	1418,9
911,679	1485,61
912,043	1530,09
912,407	1510,32
912,771	1535,03
913,135	1619,04
913,498	1732,7
913,862	1577,04
914,226	1517,73
914,589	1643,75
914,953	1547,39
915,316	1406,55
915,68	1342,3
916,043	1263,23
916,406	1189,11
916,77	1144,63
917,133	1095,22
917,496	1058,15
917,859	1058,15
918,222	862,95
918,584	816,01
918,947	791,3
919,31	830,83
919,673	751,76
920,035	823,42
920,398	734,47
920,76	811,06
921,122	751,76
921,485	895,07
921,847	759,18
922,209	813,54
922,571	900,02
922,933	850,6
923,295	927,2
923,657	835,77
924,018	942,02
924,38	919,78
924,742	1008,73
925,103	870,37
925,465	833,3
925,826	917,31
926,187	865,42
926,549	796,24
926,91	919,78
927,271	853,07
927,632	855,54
927,993	714,7
928,354	714,7
928,715	672,7
929,075	665,28
929,436	660,34
929,797	630,69
930,157	615,87
930,518	559,04
930,878	551,62
931,238	598,57
931,598	559,04
931,959	586,21
932,319	571,39
932,679	489,85
933,039	536,8
933,399	487,38
933,758	462,67
934,118	559,04
934,478	541,74
934,837	512,09
935,197	521,97
935,556	563,98
935,916	526,91
936,275	593,63
936,634	588,69
936,993	573,86
937,353	598,57
937,712	709,76
938,07	613,39
938,429	625,75
938,788	593,63
939,147	719,64
939,506	732
939,864	687,52
940,223	714,7
940,581	623,28
940,939	613,39
941,298	638,1
941,656	704,82
942,014	680,11
942,372	647,99
942,73	692,46
943,088	576,33
943,446	670,22
943,804	657,87
944,161	630,69
944,519	707,29
944,877	645,52
945,234	657,87
945,592	596,1
945,949	633,16
946,306	670,22
946,663	551,62
947,021	620,81
947,378	625,75
947,735	657,87
948,091	638,1
948,448	643,05
948,805	667,75
949,162	670,22
949,518	655,4
949,875	591,16
950,231	563,98
950,588	655,4
950,944	657,87
951,3	625,75
951,657	628,22
952,013	618,34
952,369	665,28
952,725	640,57
953,081	536,8
953,436	601,04
953,792	576,33
954,148	546,68
954,503	578,8
954,859	561,51
955,214	608,45
955,57	596,1
955,925	526,91
956,28	556,56
956,635	554,09
956,991	497,26
957,346	487,38
957,701	517,03
958,055	610,92
958,41	524,44
958,765	517,03
959,12	517,03
959,474	462,67
959,829	504,68
960,183	494,79
960,537	517,03
960,892	541,74
961,246	529,38
961,6	588,69
961,954	494,79
962,308	536,8
962,662	509,62
963,016	502,21
963,37	452,79
963,723	539,27
964,077	521,97
964,43	566,45
964,784	514,56
965,137	504,68
965,491	447,85
965,844	519,5
966,197	437,96
966,55	504,68
966,903	470,08
967,256	433,02
967,609	477,5
967,962	526,91
968,315	519,5
968,667	521,97
969,02	440,43
969,372	413,25
969,725	472,55
970,077	492,32
970,429	524,44
970,782	531,86
971,134	519,5
971,486	455,26
971,838	455,26
972,19	450,32
972,542	509,62
972,893	373,72
973,245	415,72
973,597	470,08
973,948	477,5
974,3	447,85
974,651	455,26
975,003	410,78
975,354	447,85
975,705	413,25
976,056	457,73
976,407	470,08
976,758	413,25
977,109	447,85
977,46	425,61
977,811	467,61
978,161	383,6
978,512	435,49
978,862	457,73
979,213	455,26
979,563	363,84
979,913	415,72
980,264	410,78
980,614	383,6
980,964	460,2
981,314	425,61
981,664	450,32
982,014	388,54
982,363	381,13
982,713	492,32
983,063	435,49
983,412	403,37
983,762	403,37
984,111	383,6
984,461	395,96
984,81	376,19
985,159	351,48
985,508	371,25
985,857	391,02
986,206	405,84
986,555	425,61
986,904	393,49
987,253	393,49
987,601	388,54
987,95	440,43
988,298	405,84
988,647	450,32
988,995	391,02
989,343	378,66
989,692	373,72
990,04	381,13
990,388	358,89
990,736	368,78
991,084	408,31
991,432	405,84
991,779	363,84
992,127	413,25
992,475	423,14
992,822	398,43
993,17	381,13
993,517	400,9
993,864	420,67
994,212	410,78
994,559	349,01
994,906	442,9
995,253	358,89
995,6	368,78
995,947	403,37
996,293	423,14
996,64	405,84
996,987	408,31
997,333	447,85
997,68	425,61
998,026	376,19
998,373	371,25
998,719	433,02
999,065	388,54
999,411	391,02
999,757	410,78
1000,103	452,79
1000,449	440,43
1000,795	378,66
1001,141	447,85
1001,486	373,72
1001,832	405,84
1002,177	413,25
1002,523	388,54
1002,868	383,6
1003,213	346,54
1003,559	376,19
1003,904	381,13
1004,249	408,31
1004,594	331,71
1004,939	351,48
1005,283	376,19
1005,628	408,31
1005,973	423,14
1006,318	423,14
1006,662	368,78
1007,007	366,31
1007,351	408,31
1007,695	361,37
1008,039	336,66
1008,384	373,72
1008,728	450,32
1009,072	378,66
1009,416	398,43
1009,759	391,02
1010,103	400,9
1010,447	344,07
1010,791	413,25
1011,134	388,54
1011,478	378,66
1011,821	388,54
1012,164	400,9
1012,508	455,26
1012,851	378,66
1013,194	413,25
1013,537	408,31
1013,88	403,37
1014,223	376,19
1014,565	373,72
1014,908	381,13
1015,251	383,6
1015,593	376,19
1015,936	440,43
1016,278	415,72
1016,621	418,2
1016,963	341,6
1017,305	386,07
1017,647	442,9
1017,989	361,37
1018,331	319,36
1018,673	363,84
1019,015	479,97
1019,356	400,9
1019,698	423,14
1020,04	418,2
1020,381	395,96
1020,723	329,24
1021,064	349,01
1021,405	400,9
1021,746	433,02
1022,088	430,55
1022,429	398,43
1022,77	334,19
1023,11	373,72
1023,451	386,07
1023,792	386,07
1024,133	386,07
