Data from FLMS187131_14-51-48-316.txt Node
Date: Mon Dec 23 14:51:48 MSK 2024
User: FemtoLab1
Spectrometer: FLMS18713
Trigger mode: 0
Integration Time (sec): 6,500000E-2
Scans to average: 1
Electric dark correction enabled: true
Nonlinearity correction enabled: false
Boxcar width: 0
XAxis mode: Wavelengths
Number of Pixels in Spectrum: 2048
>>>>>Begin Spectral Data<<<<<
190,252	-54,05
190,715	-54,05
191,177	-54,05
191,64	-31,81
192,102	-78,76
192,565	-56,52
193,027	-123,23
193,49	-138,06
193,952	-56,52
194,415	-54,05
194,877	-88,64
195,339	-26,87
195,802	-34,28
196,264	29,96
196,726	-2,16
197,188	20,08
197,65	84,32
198,112	116,44
198,574	123,85
199,036	67,02
199,498	138,68
199,96	111,5
200,421	180,68
200,883	269,63
201,345	175,74
201,807	212,8
202,268	291,87
202,73	272,11
203,191	311,64
203,653	314,11
204,114	323,99
204,576	333,88
205,037	373,41
205,498	393,18
205,96	363,53
206,421	333,88
206,882	378,35
207,343	319,05
207,804	398,12
208,265	333,88
208,726	427,77
209,187	361,06
209,648	395,65
210,109	435,18
210,57	477,19
211,031	410,47
211,492	408
211,952	464,83
212,413	425,3
212,874	440,12
213,334	462,36
213,795	380,82
214,255	420,36
214,716	489,54
215,176	452,48
215,636	323,99
216,097	353,64
216,557	393,18
217,017	368,47
217,477	398,12
217,938	328,94
218,398	378,35
218,858	393,18
219,318	425,3
219,778	405,53
220,238	420,36
220,698	366
221,157	378,35
221,617	400,59
222,077	430,24
222,537	378,35
222,996	395,65
223,456	385,77
223,915	348,7
224,375	373,41
224,834	400,59
225,294	370,94
225,753	321,52
226,213	311,64
226,672	432,71
227,131	378,35
227,59	408
228,05	348,7
228,509	343,76
228,968	437,65
229,427	390,71
229,886	351,17
230,345	361,06
230,804	363,53
231,263	420,36
231,721	462,36
232,18	348,7
232,639	353,64
233,098	398,12
233,556	408
234,015	393,18
234,473	385,77
234,932	348,7
235,39	395,65
235,849	331,41
236,307	323,99
236,765	390,71
237,224	356,11
237,682	346,23
238,14	378,35
238,598	368,47
239,056	403,06
239,514	346,23
239,972	380,82
240,43	395,65
240,888	341,29
241,346	442,6
241,804	390,71
242,262	408
242,72	400,59
243,177	398,12
243,635	432,71
244,093	393,18
244,55	390,71
245,008	373,41
245,465	385,77
245,923	378,35
246,38	447,54
246,837	388,24
247,295	398,12
247,752	366
248,209	395,65
248,666	400,59
249,123	415,42
249,58	400,59
250,037	415,42
250,494	474,72
250,951	388,24
251,408	380,82
251,865	408
252,322	425,3
252,779	370,94
253,235	375,88
253,692	338,82
254,149	400,59
254,605	405,53
255,062	393,18
255,518	356,11
255,975	415,42
256,431	427,77
256,887	450,01
257,344	333,88
257,8	400,59
258,256	361,06
258,712	405,53
259,168	403,06
259,625	319,05
260,081	408
260,537	472,25
260,992	375,88
261,448	328,94
261,904	420,36
262,36	370,94
262,816	432,71
263,272	331,41
263,727	361,06
264,183	363,53
264,638	412,94
265,094	358,59
265,549	348,7
266,005	353,64
266,46	398,12
266,916	358,59
267,371	425,3
267,826	405,53
268,281	363,53
268,737	405,53
269,192	440,12
269,647	405,53
270,102	400,59
270,557	482,13
271,012	410,47
271,467	442,6
271,921	420,36
272,376	398,12
272,831	417,89
273,286	383,29
273,74	442,6
274,195	412,94
274,649	469,77
275,104	385,77
275,558	427,77
276,013	442,6
276,467	412,94
276,922	353,64
277,376	464,83
277,83	370,94
278,284	457,42
278,739	462,36
279,193	447,54
279,647	425,3
280,101	447,54
280,555	400,59
281,009	417,89
281,462	450,01
281,916	499,43
282,37	415,42
282,824	437,65
283,278	440,12
283,731	437,65
284,185	388,24
284,638	410,47
285,092	395,65
285,545	477,19
285,999	430,24
286,452	435,18
286,905	398,12
287,359	385,77
287,812	361,06
288,265	358,59
288,718	445,07
289,171	415,42
289,624	440,12
290,077	408
290,53	445,07
290,983	499,43
291,436	425,3
291,889	432,71
292,342	370,94
292,794	474,72
293,247	422,83
293,7	420,36
294,152	442,6
294,605	393,18
295,057	400,59
295,51	422,83
295,962	432,71
296,414	472,25
296,867	432,71
297,319	398,12
297,771	417,89
298,223	462,36
298,675	393,18
299,128	477,19
299,58	405,53
300,032	420,36
300,483	412,94
300,935	462,36
301,387	380,82
301,839	454,95
302,291	462,36
302,742	442,6
303,194	432,71
303,646	373,41
304,097	395,65
304,549	363,53
305	422,83
305,451	363,53
305,903	403,06
306,354	479,66
306,805	393,18
307,257	398,12
307,708	417,89
308,159	422,83
308,61	467,3
309,061	412,94
309,512	415,42
309,963	370,94
310,414	437,65
310,865	395,65
311,315	452,48
311,766	435,18
312,217	393,18
312,668	440,12
313,118	366
313,569	462,36
314,019	385,77
314,47	432,71
314,92	333,88
315,37	484,6
315,821	422,83
316,271	430,24
316,721	452,48
317,171	427,77
317,622	405,53
318,072	432,71
318,522	432,71
318,972	467,3
319,422	385,77
319,872	445,07
320,321	358,59
320,771	442,6
321,221	469,77
321,671	400,59
322,12	435,18
322,57	440,12
323,019	482,13
323,469	383,29
323,918	437,65
324,368	454,95
324,817	403,06
325,267	373,41
325,716	403,06
326,165	370,94
326,614	454,95
327,063	408
327,512	477,19
327,961	393,18
328,41	348,7
328,859	459,89
329,308	385,77
329,757	445,07
330,206	363,53
330,655	445,07
331,103	427,77
331,552	415,42
332,001	454,95
332,449	442,6
332,898	420,36
333,346	375,88
333,794	425,3
334,243	405,53
334,691	383,29
335,139	417,89
335,588	375,88
336,036	420,36
336,484	415,42
336,932	398,12
337,38	474,72
337,828	445,07
338,276	432,71
338,724	464,83
339,172	484,6
339,619	469,77
340,067	370,94
340,515	442,6
340,962	450,01
341,41	474,72
341,858	383,29
342,305	378,35
342,753	417,89
343,2	442,6
343,647	415,42
344,095	408
344,542	405,53
344,989	400,59
345,436	393,18
345,883	499,43
346,33	400,59
346,777	450,01
347,224	388,24
347,671	403,06
348,118	417,89
348,565	452,48
349,012	442,6
349,458	499,43
349,905	417,89
350,352	435,18
350,798	472,25
351,245	417,89
351,691	373,41
352,138	474,72
352,584	459,89
353,03	393,18
353,477	450,01
353,923	403,06
354,369	425,3
354,815	368,47
355,261	506,84
355,707	417,89
356,153	412,94
356,599	440,12
357,045	445,07
357,491	450,01
357,937	445,07
358,382	447,54
358,828	403,06
359,274	435,18
359,719	427,77
360,165	445,07
360,61	420,36
361,056	452,48
361,501	464,83
361,947	445,07
362,392	445,07
362,837	452,48
363,282	427,77
363,727	450,01
364,173	346,23
364,618	385,77
365,063	437,65
365,508	450,01
365,952	417,89
366,397	504,37
366,842	410,47
367,287	380,82
367,732	388,24
368,176	420,36
368,621	430,24
369,065	432,71
369,51	393,18
369,954	366
370,399	467,3
370,843	417,89
371,287	412,94
371,732	477,19
372,176	454,95
372,62	454,95
373,064	351,17
373,508	417,89
373,952	425,3
374,396	351,17
374,84	395,65
375,284	378,35
375,728	400,59
376,172	430,24
376,615	442,6
377,059	385,77
377,503	499,43
377,946	462,36
378,39	363,53
378,833	447,54
379,277	321,52
379,72	408
380,163	408
380,607	487,07
381,05	484,6
381,493	452,48
381,936	400,59
382,379	405,53
382,822	415,42
383,265	400,59
383,708	432,71
384,151	393,18
384,594	440,12
385,037	400,59
385,479	403,06
385,922	398,12
386,365	427,77
386,807	417,89
387,25	442,6
387,692	412,94
388,135	395,65
388,577	346,23
389,019	430,24
389,461	477,19
389,904	501,9
390,346	445,07
390,788	380,82
391,23	417,89
391,672	484,6
392,114	452,48
392,556	385,77
392,998	393,18
393,44	435,18
393,881	454,95
394,323	422,83
394,765	410,47
395,206	383,29
395,648	415,42
396,09	445,07
396,531	437,65
396,972	417,89
397,414	447,54
397,855	400,59
398,296	405,53
398,738	469,77
399,179	400,59
399,62	425,3
400,061	398,12
400,502	385,77
400,943	437,65
401,384	422,83
401,825	430,24
402,265	469,77
402,706	454,95
403,147	494,48
403,588	452,48
404,028	422,83
404,469	457,42
404,909	415,42
405,35	375,88
405,79	427,77
406,23	388,24
406,671	410,47
407,111	440,12
407,551	415,42
407,991	430,24
408,431	375,88
408,871	403,06
409,311	442,6
409,751	484,6
410,191	398,12
410,631	400,59
411,071	408
411,511	408
411,95	415,42
412,39	454,95
412,83	417,89
413,269	410,47
413,709	425,3
414,148	459,89
414,587	435,18
415,027	474,72
415,466	383,29
415,905	420,36
416,345	408
416,784	435,18
417,223	380,82
417,662	393,18
418,101	467,3
418,54	534,02
418,979	459,89
419,417	462,36
419,856	457,42
420,295	410,47
420,734	351,17
421,172	452,48
421,611	427,77
422,049	459,89
422,488	452,48
422,926	526,61
423,364	393,18
423,803	415,42
424,241	417,89
424,679	432,71
425,117	440,12
425,555	467,3
425,994	420,36
426,432	454,95
426,87	472,25
427,307	417,89
427,745	420,36
428,183	457,42
428,621	400,59
429,058	487,07
429,496	390,71
429,934	472,25
430,371	440,12
430,809	457,42
431,246	464,83
431,684	432,71
432,121	452,48
432,558	472,25
432,995	509,31
433,433	474,72
433,87	482,13
434,307	492,01
434,744	427,77
435,181	492,01
435,618	450,01
436,055	487,07
436,491	566,14
436,928	553,78
437,365	546,37
437,801	487,07
438,238	534,02
438,675	464,83
439,111	504,37
439,548	450,01
439,984	494,48
440,42	445,07
440,857	514,25
441,293	489,54
441,729	496,95
442,165	454,95
442,601	450,01
443,037	474,72
443,473	403,06
443,909	499,43
444,345	479,66
444,781	472,25
445,217	509,31
445,652	551,31
446,088	536,49
446,524	516,72
446,959	561,2
447,395	551,31
447,83	511,78
448,266	499,43
448,701	499,43
449,136	526,61
449,572	521,66
450,007	521,66
450,442	546,37
450,877	615,56
451,312	588,38
451,747	580,96
452,182	571,08
452,617	499,43
453,052	553,78
453,486	521,66
453,921	546,37
454,356	521,66
454,79	511,78
455,225	529,08
455,66	506,84
456,094	504,37
456,528	531,55
456,963	556,26
457,397	526,61
457,831	568,61
458,265	568,61
458,7	516,72
459,134	568,61
459,568	588,38
460,002	571,08
460,436	516,72
460,87	568,61
461,303	595,79
461,737	506,84
462,171	492,01
462,605	543,9
463,038	472,25
463,472	464,83
463,905	504,37
464,339	452,48
464,772	553,78
465,205	526,61
465,639	484,6
466,072	440,12
466,505	482,13
466,938	489,54
467,371	548,84
467,804	484,6
468,237	541,43
468,67	531,55
469,103	511,78
469,536	506,84
469,969	474,72
470,402	462,36
470,834	546,37
471,267	521,66
471,699	568,61
472,132	519,19
472,564	566,14
472,997	504,37
473,429	541,43
473,861	511,78
474,294	620,5
474,726	509,31
475,158	543,9
475,59	576,02
476,022	585,91
476,454	585,91
476,886	660,03
477,318	613,09
477,75	627,91
478,181	687,21
478,613	731,69
479,045	793,46
479,476	889,82
479,908	1035,61
480,339	1144,32
480,771	1334,58
481,202	1477,89
481,634	1660,74
482,065	1485,3
482,496	1574,26
482,927	1645,91
483,358	1673,09
483,789	1967,12
484,22	2308,11
484,651	3113,61
485,082	3936,41
485,513	5446,12
485,944	7052,18
486,375	8858,39
486,805	10580,59
487,236	12502,93
487,667	13595,06
488,097	14694,6
488,527	15220,89
488,958	15302,43
489,388	14390,68
489,819	13207,13
490,249	12401,63
490,679	11677,66
491,109	11880,27
491,539	13091
491,969	15507,52
492,399	19512,8
492,829	23826,95
493,259	29398,77
493,689	34718,56
494,119	38926,46
494,548	43176,37
494,978	46573,82
495,408	49034,81
495,837	50630,99
496,267	52217,3
496,696	52039,39
497,126	51186,94
497,555	49818,08
497,984	46776,43
498,413	42993,52
498,843	38812,8
499,272	35141,08
499,701	31768,34
500,13	29514,9
500,559	27777,88
500,988	27896,48
501,417	29277,7
501,845	31543,49
502,274	34617,26
502,703	37955,41
503,131	41879,16
503,56	44224,02
503,988	46835,73
504,417	48362,73
504,845	49664,88
505,274	49659,94
505,702	48506,04
506,13	47339,79
506,558	44970,22
506,987	42242,38
507,415	39487,35
507,843	36428,41
508,271	33349,7
508,699	30298,17
509,126	27501,14
509,554	25119,22
509,982	22818,83
510,41	21467,27
510,837	19952,62
511,265	18470,09
511,693	17145,71
512,12	15752,13
512,547	14657,54
512,975	13419,63
513,402	11853,09
513,829	10583,06
514,257	8937,46
514,684	7734,15
515,111	6684,02
515,538	5811,81
515,965	4904,99
516,392	4438
516,819	3738,74
517,246	3360,7
517,672	3049,37
518,099	2896,17
518,526	2822,05
518,952	2797,34
519,379	2624,38
519,805	2562,61
520,232	2367,41
520,658	2172,21
521,085	2105,49
521,511	1885,59
521,937	1799,11
522,363	1598,96
522,789	1712,62
523,215	1532,25
523,641	1495,19
524,067	1532,25
524,493	1356,82
524,919	1339,52
525,345	1275,28
525,771	1131,97
526,196	1112,2
526,622	1033,13
527,047	1060,31
527,473	1092,44
527,898	912,06
528,324	941,71
528,749	902,18
529,174	870,06
529,6	941,71
530,025	855,23
530,45	766,28
530,875	835,46
531,3	751,45
531,725	830,52
532,15	892,29
532,575	758,87
532,999	813,23
533,424	795,93
533,849	746,51
534,273	731,69
534,698	768,75
535,122	810,76
535,547	689,68
535,971	744,04
536,396	800,87
536,82	689,68
537,244	781,11
537,668	818,17
538,092	790,99
538,517	697,1
538,941	729,22
539,364	771,22
539,788	734,16
540,212	781,11
540,636	773,69
541,06	813,23
541,483	721,8
541,907	790,99
542,331	786,05
542,754	692,15
543,178	795,93
543,601	766,28
544,024	795,93
544,448	783,58
544,871	810,76
545,294	783,58
545,717	808,28
546,14	887,35
546,563	1013,37
546,986	870,06
547,409	860,17
547,832	892,29
548,255	847,82
548,677	788,52
549,1	810,76
549,522	771,22
549,945	815,7
550,368	768,75
550,79	739,1
551,212	726,75
551,635	771,22
552,057	788,52
552,479	823,11
552,901	768,75
553,323	753,93
553,745	840,41
554,167	763,81
554,589	810,76
555,011	842,88
555,433	781,11
555,855	790,99
556,277	771,22
556,698	830,52
557,12	830,52
557,541	790,99
557,963	810,76
558,384	786,05
558,806	800,87
559,227	815,7
559,648	790,99
560,069	790,99
560,49	798,4
560,912	820,64
561,333	778,63
561,754	790,99
562,174	800,87
562,595	813,23
563,016	855,23
563,437	813,23
563,858	855,23
564,278	865,11
564,699	825,58
565,119	798,4
565,54	736,63
565,96	837,94
566,38	798,4
566,801	719,33
567,221	798,4
567,641	803,34
568,061	847,82
568,481	823,11
568,901	793,46
569,321	778,63
569,741	736,63
570,161	788,52
570,581	840,41
571,001	800,87
571,42	897,24
571,84	862,64
572,259	793,46
572,679	865,11
573,098	889,82
573,518	917
573,937	771,22
574,356	835,46
574,775	768,75
575,195	776,16
575,614	778,63
576,033	884,88
576,452	837,94
576,871	842,88
577,29	818,17
577,708	872,53
578,127	837,94
578,546	828,05
578,964	929,36
579,383	803,34
579,801	820,64
580,22	842,88
580,638	877,47
581,057	924,42
581,475	805,81
581,893	855,23
582,311	825,58
582,73	852,76
583,148	813,23
583,566	1001,01
583,984	788,52
584,401	763,81
584,819	776,16
585,237	815,7
585,655	795,93
586,072	753,93
586,49	835,46
586,908	803,34
587,325	793,46
587,742	897,24
588,16	884,88
588,577	842,88
588,994	860,17
589,412	805,81
589,829	872,53
590,246	783,58
590,663	830,52
591,08	746,51
591,497	857,7
591,914	781,11
592,33	800,87
592,747	790,99
593,164	872,53
593,58	798,4
593,997	761,34
594,413	756,4
594,83	761,34
595,246	790,99
595,663	758,87
596,079	682,27
596,495	798,4
596,911	845,35
597,327	692,15
597,743	709,45
598,159	771,22
598,575	709,45
598,991	739,1
599,407	815,7
599,823	694,62
600,238	731,69
600,654	753,93
601,07	729,22
601,485	783,58
601,901	761,34
602,316	756,4
602,731	702,04
603,147	679,8
603,562	761,34
603,977	741,57
604,392	739,1
604,807	667,44
605,222	709,45
605,637	761,34
606,052	746,51
606,467	699,57
606,882	650,15
607,296	674,86
607,711	652,62
608,125	729,22
608,54	664,97
608,954	674,86
609,369	672,39
609,783	652,62
610,197	625,44
610,612	657,56
611,026	716,86
611,44	598,26
611,854	697,1
612,268	702,04
612,682	635,32
613,096	650,15
613,51	640,27
613,923	704,51
614,337	692,15
614,751	662,5
615,164	650,15
615,578	610,61
615,991	622,97
616,405	632,85
616,818	721,8
617,231	551,31
617,645	541,43
618,058	608,14
618,471	603,2
618,884	578,49
619,297	561,2
619,71	625,44
620,123	635,32
620,536	613,09
620,948	571,08
621,361	615,56
621,774	632,85
622,186	578,49
622,599	563,67
623,011	620,5
623,424	583,44
623,836	573,55
624,248	556,26
624,661	534,02
625,073	571,08
625,485	593,32
625,897	563,67
626,309	514,25
626,721	534,02
627,133	566,14
627,545	543,9
627,956	529,08
628,368	558,73
628,78	558,73
629,191	563,67
629,603	603,2
630,014	595,79
630,426	541,43
630,837	571,08
631,248	578,49
631,66	657,56
632,071	553,78
632,482	506,84
632,893	610,61
633,304	536,49
633,715	541,43
634,126	504,37
634,536	558,73
634,947	521,66
635,358	563,67
635,769	580,96
636,179	529,08
636,59	531,55
637	477,19
637,41	553,78
637,821	526,61
638,231	506,84
638,641	516,72
639,051	494,48
639,462	504,37
639,872	484,6
640,282	583,44
640,691	538,96
641,101	464,83
641,511	504,37
641,921	489,54
642,331	499,43
642,74	526,61
643,15	563,67
643,559	524,13
643,969	511,78
644,378	492,01
644,787	450,01
645,197	529,08
645,606	494,48
646,015	585,91
646,424	496,95
646,833	457,42
647,242	422,83
647,651	450,01
648,06	469,77
648,469	450,01
648,877	509,31
649,286	472,25
649,694	506,84
650,103	462,36
650,512	482,13
650,92	492,01
651,328	487,07
651,737	509,31
652,145	477,19
652,553	457,42
652,961	467,3
653,369	464,83
653,777	437,65
654,185	519,19
654,593	474,72
655,001	435,18
655,409	494,48
655,816	519,19
656,224	447,54
656,631	435,18
657,039	454,95
657,446	479,66
657,854	501,9
658,261	450,01
658,668	504,37
659,076	450,01
659,483	462,36
659,89	408
660,297	398,12
660,704	430,24
661,111	447,54
661,518	472,25
661,924	504,37
662,331	440,12
662,738	472,25
663,144	464,83
663,551	422,83
663,957	479,66
664,364	467,3
664,77	496,95
665,177	440,12
665,583	511,78
665,989	417,89
666,395	356,11
666,801	454,95
667,207	467,3
667,613	487,07
668,019	440,12
668,425	469,77
668,83	400,59
669,236	445,07
669,642	489,54
670,047	432,71
670,453	358,59
670,858	408
671,264	445,07
671,669	462,36
672,074	432,71
672,48	430,24
672,885	479,66
673,29	400,59
673,695	378,35
674,1	501,9
674,505	447,54
674,909	472,25
675,314	417,89
675,719	445,07
676,124	393,18
676,528	509,31
676,933	358,59
677,337	445,07
677,742	445,07
678,146	427,77
678,55	452,48
678,955	430,24
679,359	450,01
679,763	405,53
680,167	504,37
680,571	378,35
680,975	378,35
681,379	467,3
681,782	509,31
682,186	440,12
682,59	395,65
682,993	420,36
683,397	445,07
683,8	477,19
684,204	437,65
684,607	430,24
685,011	442,6
685,414	415,42
685,817	420,36
686,22	425,3
686,623	408
687,026	393,18
687,429	474,72
687,832	378,35
688,235	415,42
688,638	445,07
689,04	417,89
689,443	435,18
689,845	440,12
690,248	489,54
690,65	425,3
691,053	336,35
691,455	410,47
691,857	422,83
692,26	467,3
692,662	489,54
693,064	445,07
693,466	467,3
693,868	447,54
694,27	450,01
694,671	383,29
695,073	464,83
695,475	400,59
695,877	459,89
696,278	432,71
696,68	452,48
697,081	445,07
697,483	403,06
697,884	412,94
698,285	472,25
698,686	388,24
699,087	395,65
699,489	373,41
699,89	427,77
700,291	403,06
700,691	445,07
701,092	450,01
701,493	462,36
701,894	474,72
702,294	373,41
702,695	445,07
703,096	447,54
703,496	437,65
703,896	410,47
704,297	393,18
704,697	440,12
705,097	395,65
705,497	489,54
705,897	417,89
706,297	442,6
706,697	393,18
707,097	395,65
707,497	408
707,897	405,53
708,297	412,94
708,696	403,06
709,096	464,83
709,495	385,77
709,895	385,77
710,294	373,41
710,694	422,83
711,093	410,47
711,492	395,65
711,891	450,01
712,29	417,89
712,689	388,24
713,088	417,89
713,487	425,3
713,886	378,35
714,285	370,94
714,684	425,3
715,082	385,77
715,481	390,71
715,879	440,12
716,278	388,24
716,676	395,65
717,075	375,88
717,473	368,47
717,871	403,06
718,269	395,65
718,667	405,53
719,065	415,42
719,463	425,3
719,861	398,12
720,259	435,18
720,657	380,82
721,054	425,3
721,452	450,01
721,85	366
722,247	420,36
722,645	472,25
723,042	375,88
723,439	422,83
723,837	410,47
724,234	373,41
724,631	398,12
725,028	341,29
725,425	427,77
725,822	417,89
726,219	462,36
726,616	346,23
727,012	373,41
727,409	440,12
727,806	395,65
728,202	393,18
728,599	450,01
728,995	383,29
729,392	398,12
729,788	430,24
730,184	447,54
730,58	408
730,977	457,42
731,373	420,36
731,769	442,6
732,165	450,01
732,56	459,89
732,956	366
733,352	496,95
733,748	442,6
734,143	378,35
734,539	422,83
734,934	400,59
735,33	410,47
735,725	388,24
736,12	410,47
736,516	412,94
736,911	442,6
737,306	462,36
737,701	445,07
738,096	417,89
738,491	432,71
738,886	417,89
739,28	452,48
739,675	395,65
740,07	445,07
740,464	408
740,859	425,3
741,253	482,13
741,648	445,07
742,042	395,65
742,437	400,59
742,831	410,47
743,225	417,89
743,619	430,24
744,013	346,23
744,407	457,42
744,801	422,83
745,195	380,82
745,588	388,24
745,982	420,36
746,376	415,42
746,769	368,47
747,163	412,94
747,556	380,82
747,95	417,89
748,343	454,95
748,736	430,24
749,13	338,82
749,523	403,06
749,916	385,77
750,309	390,71
750,702	452,48
751,095	450,01
751,487	437,65
751,88	440,12
752,273	383,29
752,665	398,12
753,058	482,13
753,45	459,89
753,843	348,7
754,235	412,94
754,627	450,01
755,02	417,89
755,412	403,06
755,804	380,82
756,196	388,24
756,588	432,71
756,98	405,53
757,372	393,18
757,764	412,94
758,155	405,53
758,547	398,12
758,938	395,65
759,33	403,06
759,721	398,12
760,113	375,88
760,504	361,06
760,895	410,47
761,287	373,41
761,678	410,47
762,069	459,89
762,46	462,36
762,851	432,71
763,242	482,13
763,632	432,71
764,023	412,94
764,414	403,06
764,804	412,94
765,195	432,71
765,586	398,12
765,976	457,42
766,366	432,71
766,757	432,71
767,147	427,77
767,537	385,77
767,927	385,77
768,317	412,94
768,707	432,71
769,097	489,54
769,487	514,25
769,877	395,65
770,266	383,29
770,656	343,76
771,045	462,36
771,435	380,82
771,824	430,24
772,214	412,94
772,603	452,48
772,992	432,71
773,382	403,06
773,771	403,06
774,16	437,65
774,549	378,35
774,938	452,48
775,327	378,35
775,715	373,41
776,104	375,88
776,493	425,3
776,881	427,77
777,27	445,07
777,658	447,54
778,047	454,95
778,435	395,65
778,823	509,31
779,212	445,07
779,6	435,18
779,988	499,43
780,376	351,17
780,764	363,53
781,152	469,77
781,539	430,24
781,927	432,71
782,315	412,94
782,702	417,89
783,09	408
783,477	353,64
783,865	412,94
784,252	447,54
784,64	464,83
785,027	440,12
785,414	427,77
785,801	393,18
786,188	440,12
786,575	390,71
786,962	422,83
787,349	445,07
787,736	492,01
788,122	383,29
788,509	422,83
788,895	477,19
789,282	425,3
789,668	452,48
790,055	432,71
790,441	462,36
790,827	390,71
791,213	474,72
791,6	388,24
791,986	422,83
792,372	437,65
792,757	422,83
793,143	435,18
793,529	410,47
793,915	373,41
794,3	415,42
794,686	393,18
795,072	454,95
795,457	383,29
795,842	437,65
796,228	469,77
796,613	383,29
796,998	425,3
797,383	398,12
797,768	445,07
798,153	422,83
798,538	408
798,923	415,42
799,308	440,12
799,692	405,53
800,077	417,89
800,462	499,43
800,846	420,36
801,231	398,12
801,615	385,77
801,999	356,11
802,384	363,53
802,768	403,06
803,152	519,19
803,536	405,53
803,92	356,11
804,304	368,47
804,688	388,24
805,072	393,18
805,455	410,47
805,839	415,42
806,223	405,53
806,606	464,83
806,99	472,25
807,373	482,13
807,756	420,36
808,139	440,12
808,523	420,36
808,906	442,6
809,289	427,77
809,672	363,53
810,055	437,65
810,438	417,89
810,82	506,84
811,203	366
811,586	457,42
811,968	454,95
812,351	514,25
812,733	435,18
813,116	420,36
813,498	445,07
813,88	415,42
814,263	400,59
814,645	385,77
815,027	447,54
815,409	405,53
815,791	445,07
816,172	447,54
816,554	440,12
816,936	400,59
817,318	430,24
817,699	415,42
818,081	450,01
818,462	437,65
818,844	432,71
819,225	427,77
819,606	509,31
819,987	442,6
820,368	459,89
820,749	472,25
821,13	489,54
821,511	427,77
821,892	472,25
822,273	452,48
822,654	422,83
823,034	432,71
823,415	400,59
823,795	467,3
824,176	442,6
824,556	442,6
824,937	427,77
825,317	546,37
825,697	415,42
826,077	447,54
826,457	511,78
826,837	474,72
827,217	474,72
827,597	395,65
827,977	405,53
828,356	462,36
828,736	405,53
829,116	489,54
829,495	479,66
829,874	415,42
830,254	511,78
830,633	519,19
831,012	536,49
831,392	521,66
831,771	450,01
832,15	496,95
832,529	452,48
832,908	440,12
833,286	521,66
833,665	457,42
834,044	445,07
834,422	422,83
834,801	506,84
835,179	472,25
835,558	509,31
835,936	514,25
836,314	561,2
836,693	563,67
837,071	472,25
837,449	556,26
837,827	538,96
838,205	501,9
838,583	588,38
838,961	511,78
839,338	519,19
839,716	551,31
840,094	501,9
840,471	492,01
840,849	482,13
841,226	501,9
841,603	536,49
841,981	506,84
842,358	526,61
842,735	521,66
843,112	610,61
843,489	593,32
843,866	598,26
844,243	618,03
844,62	551,31
844,996	556,26
845,373	553,78
845,749	566,14
846,126	496,95
846,502	511,78
846,879	464,83
847,255	489,54
847,631	479,66
848,008	489,54
848,384	521,66
848,76	548,84
849,136	531,55
849,512	531,55
849,887	516,72
850,263	655,09
850,639	625,44
851,014	704,51
851,39	576,02
851,765	618,03
852,141	568,61
852,516	598,26
852,892	583,44
853,267	573,55
853,642	576,02
854,017	556,26
854,392	590,85
854,767	593,32
855,142	499,43
855,517	534,02
855,891	627,91
856,266	655,09
856,641	647,68
857,015	620,5
857,39	637,79
857,764	669,92
858,138	652,62
858,513	645,21
858,887	694,62
859,261	729,22
859,635	699,57
860,009	642,74
860,383	741,57
860,757	632,85
861,13	645,21
861,504	625,44
861,878	603,2
862,251	588,38
862,625	563,67
862,998	519,19
863,372	622,97
863,745	583,44
864,118	664,97
864,491	563,67
864,864	585,91
865,237	736,63
865,61	672,39
865,983	726,75
866,356	731,69
866,729	879,94
867,101	832,99
867,474	870,06
867,846	961,48
868,219	944,18
868,591	1018,31
868,964	968,89
869,336	993,6
869,708	1003,48
870,08	986,19
870,452	1028,19
870,824	983,72
871,196	971,36
871,568	921,94
871,94	897,24
872,311	919,47
872,683	966,42
873,055	884,88
873,426	870,06
873,797	758,87
874,169	781,11
874,54	674,86
874,911	748,98
875,282	642,74
875,654	669,92
876,025	588,38
876,395	672,39
876,766	571,08
877,137	598,26
877,508	719,33
877,878	674,86
878,249	613,09
878,62	674,86
878,99	699,57
879,36	744,04
879,731	746,51
880,101	756,4
880,471	845,35
880,841	813,23
881,211	924,42
881,581	897,24
881,951	1025,72
882,321	1109,73
882,691	1072,67
883,06	1144,32
883,43	1075,14
883,799	1228,33
884,169	1270,34
884,538	1351,88
884,908	1223,39
885,277	1312,34
885,646	1334,58
886,015	1287,63
886,384	1287,63
886,753	1346,94
887,122	1337,05
887,491	1369,17
887,86	1295,05
888,228	1339,52
888,597	1304,93
888,966	1186,33
889,334	1223,39
889,703	1191,27
890,071	1119,61
890,439	1117,14
890,807	993,6
891,176	956,54
891,544	931,83
891,912	919,47
892,28	914,53
892,647	887,35
893,015	773,69
893,383	825,58
893,751	682,27
894,118	694,62
894,486	635,32
894,853	627,91
895,22	561,2
895,588	583,44
895,955	618,03
896,322	642,74
896,689	605,67
897,056	541,43
897,423	667,44
897,79	615,56
898,157	548,84
898,523	603,2
898,89	630,38
899,257	684,74
899,623	657,56
899,99	655,09
900,356	667,44
900,722	714,39
901,089	716,86
901,455	679,8
901,821	622,97
902,187	610,61
902,553	553,78
902,919	635,32
903,285	615,56
903,65	598,26
904,016	600,73
904,382	534,02
904,747	608,14
905,113	598,26
905,478	566,14
905,843	551,31
906,208	548,84
906,574	605,67
906,939	635,32
907,304	622,97
907,669	615,56
908,034	635,32
908,398	721,8
908,763	682,27
909,128	682,27
909,492	637,79
909,857	706,98
910,221	667,44
910,586	711,92
910,95	706,98
911,314	704,51
911,679	714,39
912,043	734,16
912,407	736,63
912,771	808,28
913,135	766,28
913,498	756,4
913,862	756,4
914,226	729,22
914,589	867,59
914,953	823,11
915,316	862,64
915,68	897,24
916,043	966,42
916,406	976,3
916,77	954,07
917,133	993,6
917,496	1030,66
917,859	1050,43
918,222	1070,2
918,584	1080,08
918,947	1124,56
919,31	1117,14
919,673	1122,09
920,035	1107,26
920,398	1087,49
920,76	981,25
921,122	998,54
921,485	1025,72
921,847	963,95
922,209	904,65
922,571	875
922,933	781,11
923,295	803,34
923,657	768,75
924,018	724,28
924,38	714,39
924,742	706,98
925,103	578,49
925,465	556,26
925,826	553,78
926,187	603,2
926,549	571,08
926,91	576,02
927,271	588,38
927,632	652,62
927,993	652,62
928,354	561,2
928,715	573,55
929,075	610,61
929,436	603,2
929,797	692,15
930,157	744,04
930,518	766,28
930,878	694,62
931,238	761,34
931,598	677,33
931,959	786,05
932,319	788,52
932,679	746,51
933,039	781,11
933,399	719,33
933,758	655,09
934,118	744,04
934,478	744,04
934,837	736,63
935,197	674,86
935,556	652,62
935,916	608,14
936,275	519,19
936,634	630,38
936,993	524,13
937,353	593,32
937,712	580,96
938,07	536,49
938,429	427,77
938,788	519,19
939,147	519,19
939,506	442,6
939,864	405,53
940,223	504,37
940,581	472,25
940,939	477,19
941,298	541,43
941,656	514,25
942,014	469,77
942,372	526,61
942,73	573,55
943,088	571,08
943,446	637,79
943,804	669,92
944,161	702,04
944,519	702,04
944,877	655,09
945,234	655,09
945,592	699,57
945,949	697,1
946,306	786,05
946,663	716,86
947,021	771,22
947,378	724,28
947,735	664,97
948,091	704,51
948,448	699,57
948,805	736,63
949,162	672,39
949,518	642,74
949,875	682,27
950,231	585,91
950,588	600,73
950,944	687,21
951,3	652,62
951,657	573,55
952,013	593,32
952,369	546,37
952,725	506,84
953,081	519,19
953,436	514,25
953,792	504,37
954,148	445,07
954,503	469,77
954,859	496,95
955,214	415,42
955,57	415,42
955,925	489,54
956,28	398,12
956,635	405,53
956,991	459,89
957,346	474,72
957,701	437,65
958,055	440,12
958,41	454,95
958,765	467,3
959,12	489,54
959,474	474,72
959,829	408
960,183	440,12
960,537	489,54
960,892	467,3
961,246	499,43
961,6	469,77
961,954	467,3
962,308	447,54
962,662	548,84
963,016	482,13
963,37	437,65
963,723	464,83
964,077	459,89
964,43	442,6
964,784	452,48
965,137	390,71
965,491	380,82
965,844	452,48
966,197	472,25
966,55	452,48
966,903	403,06
967,256	363,53
967,609	432,71
967,962	393,18
968,315	457,42
968,667	412,94
969,02	432,71
969,372	531,55
969,725	422,83
970,077	415,42
970,429	353,64
970,782	457,42
971,134	432,71
971,486	388,24
971,838	410,47
972,19	398,12
972,542	395,65
972,893	383,29
973,245	341,29
973,597	373,41
973,948	390,71
974,3	420,36
974,651	373,41
975,003	432,71
975,354	422,83
975,705	393,18
976,056	437,65
976,407	442,6
976,758	353,64
977,109	398,12
977,46	353,64
977,811	435,18
978,161	432,71
978,512	417,89
978,862	464,83
979,213	398,12
979,563	366
979,913	447,54
980,264	380,82
980,614	430,24
980,964	356,11
981,314	336,35
981,664	430,24
982,014	442,6
982,363	452,48
982,713	430,24
983,063	430,24
983,412	432,71
983,762	437,65
984,111	422,83
984,461	422,83
984,81	373,41
985,159	373,41
985,508	395,65
985,857	368,47
986,206	447,54
986,555	412,94
986,904	427,77
987,253	390,71
987,601	420,36
987,95	326,46
988,298	447,54
988,647	370,94
988,995	427,77
989,343	422,83
989,692	454,95
990,04	445,07
990,388	432,71
990,736	410,47
991,084	373,41
991,432	366
991,779	380,82
992,127	383,29
992,475	477,19
992,822	462,36
993,17	366
993,517	388,24
993,864	457,42
994,212	385,77
994,559	373,41
994,906	326,46
995,253	390,71
995,6	400,59
995,947	435,18
996,293	412,94
996,64	420,36
996,987	427,77
997,333	368,47
997,68	351,17
998,026	353,64
998,373	398,12
998,719	385,77
999,065	356,11
999,411	403,06
999,757	422,83
1000,103	489,54
1000,449	410,47
1000,795	366
1001,141	442,6
1001,486	398,12
1001,832	442,6
1002,177	398,12
1002,523	351,17
1002,868	417,89
1003,213	370,94
1003,559	462,36
1003,904	390,71
1004,249	353,64
1004,594	380,82
1004,939	408
1005,283	403,06
1005,628	398,12
1005,973	393,18
1006,318	388,24
1006,662	346,23
1007,007	427,77
1007,351	366
1007,695	348,7
1008,039	390,71
1008,384	366
1008,728	351,17
1009,072	405,53
1009,416	454,95
1009,759	378,35
1010,103	395,65
1010,447	388,24
1010,791	454,95
1011,134	361,06
1011,478	425,3
1011,821	400,59
1012,164	410,47
1012,508	415,42
1012,851	363,53
1013,194	346,23
1013,537	328,94
1013,88	408
1014,223	370,94
1014,565	398,12
1014,908	410,47
1015,251	410,47
1015,593	356,11
1015,936	412,94
1016,278	405,53
1016,621	388,24
1016,963	363,53
1017,305	385,77
1017,647	403,06
1017,989	430,24
1018,331	450,01
1018,673	437,65
1019,015	420,36
1019,356	309,17
1019,698	432,71
1020,04	363,53
1020,381	420,36
1020,723	388,24
1021,064	410,47
1021,405	457,42
1021,746	427,77
1022,088	412,94
1022,429	494,48
1022,77	403,06
1023,11	351,17
1023,451	351,17
1023,792	351,17
1024,133	351,17
